PK2650 Deflection Data
Z Position (mm)	110.000	W Position (deg)	216.00
Preform ID	Diameter (mm)	Time Stamp	Start Time	Operator	Serial Number
Test 1	25	03-Nov-22 18:05:01	03-Nov-22 18:08:05	[no user]	266007708
Radius (mm)	Deflection
-26.220	0.000018
-26.215	0.000031
-26.210	0.000024
-26.205	-0.000016
-26.200	0.000018
-26.195	0.000011
-26.190	0.000038
-26.185	0.000024
-26.180	-0.000003
-26.175	0.000004
-26.170	0.000031
-26.165	0.000010
-26.160	-0.000003
-26.155	-0.000010
-26.150	0.000030
-26.145	-0.000003
-26.140	0.000003
-26.135	-0.000023
-26.130	0.000031
-26.125	-0.000017
-26.120	0.000003
-26.115	0.000037
-26.110	0.000024
-26.105	0.000024
-26.100	0.000010
-26.095	-0.000004
-26.090	0.000010
-26.085	0.000017
-26.080	-0.000011
-26.075	-0.000011
-26.070	-0.000004
-26.065	0.000017
-26.060	-0.000010
-26.055	0.000030
-26.050	0.000030
-26.045	0.000016
-26.040	0.000003
-26.035	0.000003
-26.030	0.000009
-26.025	0.000023
-26.020	0.000016
-26.015	0.000009
-26.010	0.000009
-26.005	0.000036
-26.000	0.000010
-25.995	0.000023
-25.990	0.000009
-25.985	0.000009
-25.980	0.000030
-25.975	0.000030
-25.970	0.000016
-25.965	0.000009
-25.960	0.000023
-25.955	0.000023
-25.950	0.000009
-25.945	-0.000005
-25.940	0.000009
-25.935	-0.000011
-25.930	-0.000004
-25.925	0.000002
-25.920	0.000002
-25.915	0.000002
-25.910	0.000056
-25.905	-0.000018
-25.900	0.000029
-25.895	0.000036
-25.890	0.000022
-25.885	0.000008
-25.880	0.000022
-25.875	-0.000012
-25.870	-0.000005
-25.865	0.000002
-25.860	0.000009
-25.855	0.000002
-25.850	0.000008
-25.845	0.000022
-25.840	0.000015
-25.835	0.000036
-25.830	-0.000005
-25.825	0.000022
-25.820	-0.000019
-25.815	-0.000019
-25.810	0.000035
-25.805	-0.000019
-25.800	0.000042
-25.795	-0.000005
-25.790	0.000008
-25.785	0.000035
-25.780	-0.000026
-25.775	0.000008
-25.770	0.000035
-25.765	0.000008
-25.760	0.000048
-25.755	0.000008
-25.750	-0.000006
-25.745	-0.000013
-25.740	0.000028
-25.735	0.000001
-25.730	-0.000006
-25.725	0.000001
-25.720	0.000028
-25.715	0.000028
-25.710	0.000008
-25.705	0.000021
-25.700	0.000028
-25.695	0.000014
-25.690	0.000014
-25.685	0.000007
-25.680	0.000014
-25.675	0.000000
-25.670	-0.000013
-25.665	0.000021
-25.660	-0.000006
-25.655	0.000021
-25.650	0.000021
-25.645	0.000055
-25.640	0.000021
-25.635	0.000041
-25.630	0.000021
-25.625	-0.000020
-25.620	0.000000
-25.615	0.000020
-25.610	0.000014
-25.605	0.000000
-25.600	0.000028
-25.595	0.000007
-25.590	0.000034
-25.585	0.000034
-25.580	0.000014
-25.575	0.000034
-25.570	0.000034
-25.565	0.000020
-25.560	0.000007
-25.555	0.000020
-25.550	0.000020
-25.545	0.000020
-25.540	0.000013
-25.535	0.000021
-25.530	0.000034
-25.525	0.000013
-25.520	0.000013
-25.515	0.000013
-25.510	0.000041
-25.505	0.000027
-25.500	0.000020
-25.495	0.000013
-25.490	0.000013
-25.485	0.000026
-25.480	0.000020
-25.475	-0.000007
-25.470	-0.000000
-25.465	0.000014
-25.460	0.000020
-25.455	0.000040
-25.450	0.000074
-25.445	0.000047
-25.440	0.000020
-25.435	0.000027
-25.430	0.000020
-25.425	0.000006
-25.420	-0.000001
-25.415	0.000026
-25.410	-0.000008
-25.405	0.000006
-25.400	0.000027
-25.395	0.000020
-25.390	0.000026
-25.385	0.000013
-25.380	0.000060
-25.375	-0.000001
-25.370	0.000019
-25.365	0.000019
-25.360	0.000019
-25.355	0.000046
-25.350	0.000006
-25.345	-0.000001
-25.340	0.000012
-25.335	-0.000001
-25.330	0.000006
-25.325	-0.000001
-25.320	0.000033
-25.315	0.000067
-25.310	0.000040
-25.305	0.000060
-25.300	0.000046
-25.295	0.000019
-25.290	-0.000008
-25.285	0.000039
-25.280	-0.000015
-25.275	0.000032
-25.270	-0.000001
-25.265	0.000026
-25.260	0.000033
-25.255	0.000026
-25.250	0.000046
-25.245	0.000046
-25.240	0.000032
-25.235	0.000025
-25.230	0.000039
-25.225	0.000012
-25.220	0.000012
-25.215	0.000005
-25.210	0.000005
-25.205	0.000005
-25.200	0.000033
-25.195	0.000005
-25.190	0.000052
-25.185	0.000045
-25.180	0.000039
-25.175	0.000032
-25.170	0.000039
-25.165	0.000045
-25.160	0.000012
-25.155	-0.000002
-25.150	0.000025
-25.145	0.000018
-25.140	0.000005
-25.135	0.000019
-25.130	0.000019
-25.125	0.000045
-25.120	0.000018
-25.115	0.000018
-25.110	0.000025
-25.105	0.000025
-25.100	0.000045
-25.095	0.000032
-25.090	0.000025
-25.085	0.000031
-25.080	0.000018
-25.075	0.000004
-25.070	0.000018
-25.065	0.000032
-25.060	0.000004
-25.055	0.000024
-25.050	0.000052
-25.045	0.000032
-25.040	0.000038
-25.035	0.000052
-25.030	0.000011
-25.025	0.000004
-25.020	0.000031
-25.015	0.000031
-25.010	0.000031
-25.005	0.000004
-25.000	0.000032
-24.995	0.000045
-24.990	0.000024
-24.985	0.000018
-24.980	0.000038
-24.975	0.000017
-24.970	0.000031
-24.965	0.000038
-24.960	-0.000010
-24.955	0.000038
-24.950	0.000024
-24.945	0.000004
-24.940	-0.000010
-24.935	0.000018
-24.930	0.000018
-24.925	0.000044
-24.920	0.000017
-24.915	0.000031
-24.910	0.000004
-24.905	0.000031
-24.900	0.000045
-24.895	0.000024
-24.890	0.000017
-24.885	0.000010
-24.880	0.000004
-24.875	-0.000017
-24.870	0.000018
-24.865	0.000011
-24.860	0.000031
-24.855	0.000024
-24.850	0.000010
-24.845	-0.000017
-24.840	0.000031
-24.835	0.000044
-24.830	0.000037
-24.825	0.000017
-24.820	0.000010
-24.815	0.000023
-24.810	0.000010
-24.805	0.000017
-24.800	0.000011
-24.795	0.000031
-24.790	0.000024
-24.785	0.000017
-24.780	0.000044
-24.775	0.000058
-24.770	0.000051
-24.765	0.000051
-24.760	0.000044
-24.755	0.000017
-24.750	0.000010
-24.745	0.000030
-24.740	0.000017
-24.735	-0.000003
-24.730	0.000017
-24.725	0.000030
-24.720	0.000051
-24.715	0.000057
-24.710	0.000010
-24.705	0.000044
-24.700	0.000037
-24.695	-0.000011
-24.690	0.000023
-24.685	0.000044
-24.680	0.000030
-24.675	0.000016
-24.670	0.000024
-24.665	0.000003
-24.660	0.000037
-24.655	0.000009
-24.650	0.000043
-24.645	0.000030
-24.640	0.000030
-24.635	0.000030
-24.630	0.000003
-24.625	0.000037
-24.620	0.000043
-24.615	0.000023
-24.610	0.000003
-24.605	0.000023
-24.600	0.000017
-24.595	0.000010
-24.590	0.000016
-24.585	0.000050
-24.580	0.000016
-24.575	0.000043
-24.570	0.000057
-24.565	0.000036
-24.560	0.000009
-24.555	0.000043
-24.550	0.000023
-24.545	0.000022
-24.540	0.000023
-24.535	0.000044
-24.530	0.000030
-24.525	0.000056
-24.520	0.000036
-24.515	0.000016
-24.510	0.000050
-24.505	0.000016
-24.500	0.000050
-24.495	0.000023
-24.490	0.000002
-24.485	0.000016
-24.480	0.000029
-24.475	0.000022
-24.470	0.000036
-24.465	0.000036
-24.460	0.000029
-24.455	0.000036
-24.450	0.000050
-24.445	0.000063
-24.440	0.000063
-24.435	0.000056
-24.430	0.000022
-24.425	0.000063
-24.420	0.000056
-24.415	0.000036
-24.410	0.000002
-24.405	0.000036
-24.400	0.000057
-24.395	0.000043
-24.390	0.000042
-24.385	0.000049
-24.380	0.000036
-24.375	0.000049
-24.370	0.000022
-24.365	0.000090
-24.360	0.000022
-24.355	0.000028
-24.350	0.000035
-24.345	0.000042
-24.340	0.000049
-24.335	0.000043
-24.330	0.000029
-24.325	0.000063
-24.320	0.000076
-24.315	0.000042
-24.310	0.000049
-24.305	0.000028
-24.300	0.000062
-24.295	0.000042
-24.290	0.000035
-24.285	0.000048
-24.280	0.000001
-24.275	0.000014
-24.270	0.000022
-24.265	0.000015
-24.260	0.000042
-24.255	0.000028
-24.250	0.000035
-24.245	0.000049
-24.240	0.000021
-24.235	0.000042
-24.230	0.000028
-24.225	0.000042
-24.220	0.000035
-24.215	0.000041
-24.210	0.000041
-24.205	0.000021
-24.200	0.000029
-24.195	0.000021
-24.190	0.000062
-24.185	0.000041
-24.180	0.000048
-24.175	0.000068
-24.170	0.000014
-24.165	0.000027
-24.160	0.000055
-24.155	0.000027
-24.150	0.000027
-24.145	0.000034
-24.140	0.000041
-24.135	0.000048
-24.130	0.000021
-24.125	0.000041
-24.120	0.000041
-24.115	0.000068
-24.110	0.000055
-24.105	0.000034
-24.100	0.000041
-24.095	0.000014
-24.090	0.000041
-24.085	0.000048
-24.080	0.000041
-24.075	0.000075
-24.070	0.000007
-24.065	0.000000
-24.060	0.000027
-24.055	0.000034
-24.050	0.000061
-24.045	0.000041
-24.040	0.000054
-24.035	0.000027
-24.030	0.000054
-24.025	0.000020
-24.020	0.000020
-24.015	0.000034
-24.010	0.000040
-24.005	0.000034
-24.000	0.000055
-23.995	0.000013
-23.990	0.000054
-23.985	0.000047
-23.980	0.000027
-23.975	0.000027
-23.970	0.000034
-23.965	0.000040
-23.960	0.000047
-23.955	0.000026
-23.950	0.000033
-23.945	0.000026
-23.940	0.000020
-23.935	0.000013
-23.930	0.000033
-23.925	0.000047
-23.920	0.000040
-23.915	0.000033
-23.910	0.000019
-23.905	0.000053
-23.900	0.000046
-23.895	0.000053
-23.890	0.000012
-23.885	-0.000008
-23.880	0.000012
-23.875	0.000019
-23.870	0.000006
-23.865	0.000033
-23.860	0.000019
-23.855	0.000026
-23.850	0.000039
-23.845	0.000039
-23.840	0.000019
-23.835	0.000026
-23.830	0.000019
-23.825	0.000005
-23.820	0.000005
-23.815	0.000012
-23.810	0.000019
-23.805	0.000033
-23.800	-0.000001
-23.795	0.000032
-23.790	0.000059
-23.785	0.000032
-23.780	0.000025
-23.775	0.000059
-23.770	0.000066
-23.765	0.000032
-23.760	0.000039
-23.755	0.000032
-23.750	0.000018
-23.745	0.000032
-23.740	0.000012
-23.735	0.000019
-23.730	0.000025
-23.725	0.000052
-23.720	0.000032
-23.715	0.000059
-23.710	0.000045
-23.705	0.000052
-23.700	0.000038
-23.695	0.000011
-23.690	0.000004
-23.685	-0.000009
-23.680	0.000011
-23.675	0.000018
-23.670	0.000025
-23.665	0.000005
-23.660	0.000018
-23.655	0.000038
-23.650	0.000045
-23.645	0.000038
-23.640	0.000045
-23.635	0.000018
-23.630	0.000004
-23.625	0.000024
-23.620	0.000011
-23.615	0.000038
-23.610	0.000024
-23.605	0.000024
-23.600	0.000031
-23.595	0.000011
-23.590	-0.000003
-23.585	0.000038
-23.580	0.000051
-23.575	0.000024
-23.570	0.000024
-23.565	-0.000003
-23.560	0.000010
-23.555	-0.000010
-23.550	0.000010
-23.545	-0.000017
-23.540	-0.000017
-23.535	-0.000010
-23.530	0.000010
-23.525	0.000010
-23.520	0.000010
-23.515	0.000010
-23.510	-0.000010
-23.505	0.000003
-23.500	-0.000017
-23.495	-0.000024
-23.490	-0.000024
-23.485	-0.000058
-23.480	-0.000024
-23.475	-0.000031
-23.470	-0.000031
-23.465	-0.000031
-23.460	0.000030
-23.455	0.000009
-23.450	0.000010
-23.445	0.000003
-23.440	0.000023
-23.435	-0.000018
-23.430	-0.000024
-23.425	-0.000004
-23.420	0.000023
-23.415	-0.000025
-23.410	0.000016
-23.405	0.000023
-23.400	0.000023
-23.395	0.000003
-23.390	0.000002
-23.385	-0.000004
-23.380	-0.000011
-23.375	-0.000005
-23.370	-0.000012
-23.365	-0.000012
-23.360	0.000050
-23.355	0.000002
-23.350	-0.000012
-23.345	-0.000025
-23.340	0.000016
-23.335	0.000002
-23.330	0.000016
-23.325	0.000022
-23.320	0.000029
-23.315	-0.000012
-23.310	0.000009
-23.305	0.000009
-23.300	-0.000005
-23.295	-0.000012
-23.290	0.000015
-23.285	0.000008
-23.280	-0.000019
-23.275	-0.000032
-23.270	-0.000039
-23.265	-0.000012
-23.260	-0.000012
-23.255	0.000015
-23.250	0.000015
-23.245	0.000001
-23.240	0.000022
-23.235	-0.000013
-23.230	-0.000019
-23.225	0.000008
-23.220	-0.000006
-23.215	0.000008
-23.210	-0.000019
-23.205	-0.000026
-23.200	-0.000026
-23.195	0.000008
-23.190	-0.000013
-23.185	0.000014
-23.180	0.000001
-23.175	-0.000006
-23.170	-0.000019
-23.165	0.000008
-23.160	0.000001
-23.155	0.000021
-23.150	-0.000006
-23.145	-0.000020
-23.140	0.000008
-23.135	0.000008
-23.130	-0.000026
-23.125	0.000007
-23.120	0.000007
-23.115	0.000028
-23.110	0.000041
-23.105	0.000001
-23.100	-0.000006
-23.095	0.000014
-23.090	0.000007
-23.085	-0.000007
-23.080	0.000014
-23.075	-0.000027
-23.070	0.000007
-23.065	-0.000020
-23.060	-0.000034
-23.055	0.000000
-23.050	0.000014
-23.045	-0.000013
-23.040	0.000007
-23.035	0.000007
-23.030	0.000007
-23.025	-0.000020
-23.020	0.000000
-23.015	-0.000014
-23.010	-0.000034
-23.005	0.000034
-23.000	0.000007
-22.995	-0.000013
-22.990	-0.000007
-22.985	-0.000000
-22.980	-0.000021
-22.975	0.000020
-22.970	0.000027
-22.965	0.000020
-22.960	-0.000021
-22.955	-0.000014
-22.950	-0.000028
-22.945	-0.000021
-22.940	-0.000021
-22.935	-0.000014
-22.930	-0.000014
-22.925	-0.000007
-22.920	-0.000007
-22.915	-0.000000
-22.910	0.000013
-22.905	0.000027
-22.900	0.000006
-22.895	-0.000021
-22.890	-0.000007
-22.885	-0.000021
-22.880	-0.000008
-22.875	-0.000001
-22.870	-0.000021
-22.865	-0.000014
-22.860	0.000020
-22.855	-0.000015
-22.850	0.000006
-22.845	-0.000008
-22.840	0.000019
-22.835	0.000006
-22.830	0.000012
-22.825	0.000012
-22.820	0.000012
-22.815	-0.000022
-22.810	-0.000008
-22.805	-0.000021
-22.800	-0.000014
-22.795	0.000006
-22.790	-0.000001
-22.785	0.000060
-22.780	0.000006
-22.775	0.000026
-22.770	-0.000008
-22.765	0.000006
-22.760	-0.000022
-22.755	0.000012
-22.750	-0.000008
-22.745	-0.000008
-22.740	-0.000008
-22.735	0.000006
-22.730	-0.000042
-22.725	0.000039
-22.720	-0.000008
-22.715	0.000012
-22.710	0.000026
-22.705	-0.000002
-22.700	0.000019
-22.695	-0.000015
-22.690	-0.000009
-22.685	0.000005
-22.680	-0.000022
-22.675	0.000012
-22.670	-0.000022
-22.665	-0.000002
-22.660	0.000032
-22.655	-0.000023
-22.650	0.000005
-22.645	0.000005
-22.640	0.000025
-22.635	0.000005
-22.630	-0.000009
-22.625	0.000011
-22.620	0.000011
-22.615	0.000004
-22.610	-0.000009
-22.605	-0.000022
-22.600	0.000012
-22.595	-0.000022
-22.590	-0.000002
-22.585	-0.000002
-22.580	-0.000016
-22.575	0.000025
-22.570	0.000011
-22.565	0.000004
-22.560	-0.000016
-22.555	-0.000003
-22.550	-0.000016
-22.545	-0.000016
-22.540	-0.000009
-22.535	-0.000023
-22.530	0.000025
-22.525	0.000011
-22.520	0.000018
-22.515	-0.000016
-22.510	-0.000009
-22.505	-0.000030
-22.500	-0.000030
-22.495	-0.000003
-22.490	0.000004
-22.485	0.000011
-22.480	-0.000016
-22.475	-0.000010
-22.470	-0.000023
-22.465	-0.000009
-22.460	-0.000017
-22.455	-0.000017
-22.450	-0.000010
-22.445	0.000031
-22.440	0.000024
-22.435	0.000017
-22.430	0.000010
-22.425	-0.000010
-22.420	-0.000037
-22.415	-0.000024
-22.410	-0.000031
-22.405	-0.000037
-22.400	0.000011
-22.395	0.000010
-22.390	0.000024
-22.385	0.000003
-22.380	0.000003
-22.375	0.000010
-22.370	-0.000024
-22.365	-0.000010
-22.360	-0.000017
-22.355	-0.000010
-22.350	-0.000024
-22.345	-0.000004
-22.340	-0.000010
-22.335	-0.000010
-22.330	-0.000010
-22.325	0.000003
-22.320	0.000010
-22.315	-0.000004
-22.310	-0.000011
-22.305	-0.000017
-22.300	-0.000031
-22.295	-0.000024
-22.290	-0.000031
-22.285	-0.000024
-22.280	-0.000018
-22.275	0.000023
-22.270	-0.000031
-22.265	-0.000017
-22.260	-0.000018
-22.255	-0.000004
-22.250	-0.000011
-22.245	0.000010
-22.240	-0.000011
-22.235	0.000003
-22.230	-0.000004
-22.225	0.000002
-22.220	-0.000018
-22.215	-0.000018
-22.210	-0.000018
-22.205	-0.000011
-22.200	-0.000011
-22.195	-0.000004
-22.190	-0.000004
-22.185	-0.000018
-22.180	-0.000004
-22.175	0.000016
-22.170	0.000016
-22.165	-0.000011
-22.160	-0.000025
-22.155	-0.000005
-22.150	-0.000011
-22.145	-0.000012
-22.140	-0.000018
-22.135	-0.000011
-22.130	-0.000025
-22.125	0.000002
-22.120	0.000016
-22.115	-0.000012
-22.110	-0.000005
-22.105	-0.000025
-22.100	-0.000011
-22.095	-0.000018
-22.090	-0.000032
-22.085	-0.000018
-22.080	-0.000019
-22.075	-0.000032
-22.070	-0.000011
-22.065	-0.000018
-22.060	-0.000005
-22.055	-0.000012
-22.050	-0.000019
-22.045	-0.000019
-22.040	0.000002
-22.035	0.000008
-22.030	-0.000026
-22.025	-0.000005
-22.020	-0.000012
-22.015	0.000008
-22.010	-0.000039
-22.005	-0.000012
-22.000	0.000016
-21.995	-0.000026
-21.990	-0.000026
-21.985	-0.000012
-21.980	-0.000012
-21.975	-0.000012
-21.970	-0.000005
-21.965	-0.000026
-21.960	-0.000012
-21.955	-0.000012
-21.950	-0.000026
-21.945	-0.000012
-21.940	-0.000046
-21.935	-0.000019
-21.930	-0.000026
-21.925	0.000001
-21.920	0.000022
-21.915	-0.000012
-21.910	-0.000012
-21.905	0.000008
-21.900	0.000021
-21.895	0.000001
-21.890	-0.000013
-21.885	0.000001
-21.880	-0.000020
-21.875	-0.000026
-21.870	-0.000012
-21.865	-0.000019
-21.860	0.000008
-21.855	0.000008
-21.850	0.000001
-21.845	0.000001
-21.840	-0.000013
-21.835	-0.000020
-21.830	-0.000026
-21.825	0.000008
-21.820	-0.000026
-21.815	-0.000020
-21.810	-0.000013
-21.805	-0.000012
-21.800	-0.000012
-21.795	-0.000013
-21.790	-0.000006
-21.785	0.000014
-21.780	-0.000033
-21.775	-0.000013
-21.770	-0.000013
-21.765	-0.000013
-21.760	0.000000
-21.755	-0.000027
-21.750	-0.000020
-21.745	-0.000020
-21.740	-0.000020
-21.735	0.000008
-21.730	0.000014
-21.725	0.000000
-21.720	0.000000
-21.715	0.000000
-21.710	-0.000006
-21.705	-0.000013
-21.700	0.000007
-21.695	-0.000007
-21.690	-0.000013
-21.685	-0.000007
-21.680	-0.000020
-21.675	-0.000020
-21.670	-0.000020
-21.665	-0.000034
-21.660	0.000048
-21.655	-0.000000
-21.650	0.000007
-21.645	-0.000000
-21.640	-0.000014
-21.635	-0.000007
-21.630	-0.000014
-21.625	-0.000021
-21.620	-0.000048
-21.615	-0.000007
-21.610	-0.000007
-21.605	-0.000020
-21.600	0.000000
-21.595	-0.000000
-21.590	0.000013
-21.585	0.000027
-21.580	0.000027
-21.575	-0.000014
-21.570	0.000020
-21.565	0.000033
-21.560	0.000054
-21.555	0.000006
-21.550	-0.000000
-21.545	-0.000000
-21.540	-0.000007
-21.535	0.000020
-21.530	-0.000007
-21.525	0.000047
-21.520	0.000033
-21.515	0.000027
-21.510	0.000013
-21.505	-0.000001
-21.500	0.000040
-21.495	0.000040
-21.490	0.000006
-21.485	-0.000021
-21.480	0.000033
-21.475	-0.000001
-21.470	0.000027
-21.465	0.000054
-21.460	0.000040
-21.455	0.000061
-21.450	0.000129
-21.445	0.000177
-21.440	0.000238
-21.435	0.000361
-21.430	0.000573
-21.425	0.000882
-21.420	0.001253
-21.415	0.001832
-21.410	0.002567
-21.405	0.003579
-21.400	0.004804
-21.395	0.006211
-21.390	0.007965
-21.385	0.009958
-21.380	0.012327
-21.375	0.015057
-21.370	0.018044
-21.365	0.021238
-21.360	0.024663
-21.355	0.028260
-21.350	0.031929
-21.345	0.035594
-21.340	0.039180
-21.335	0.042957
-21.330	0.046484
-21.325	0.049698
-21.320	0.050827
-21.315	0.049820
-21.310	0.049003
-21.305	0.047612
-21.300	0.045638
-21.295	0.044583
-21.290	0.043762
-21.285	0.042876
-21.280	0.042126
-21.275	0.041742
-21.270	0.040671
-21.265	0.039208
-21.260	0.038283
-21.255	0.037390
-21.250	0.036482
-21.245	0.036041
-21.240	0.035316
-21.235	0.034428
-21.230	0.034172
-21.225	0.033645
-21.220	0.033027
-21.215	0.032547
-21.210	0.032039
-21.205	0.031610
-21.200	0.031240
-21.195	0.030974
-21.190	0.030718
-21.185	0.030617
-21.180	0.030192
-21.175	0.029342
-21.170	0.028736
-21.165	0.028479
-21.160	0.028300
-21.155	0.027846
-21.150	0.027394
-21.145	0.027219
-21.140	0.027210
-21.135	0.027407
-21.130	0.027433
-21.125	0.026598
-21.120	0.025885
-21.115	0.025691
-21.110	0.025593
-21.105	0.025378
-21.100	0.025120
-21.095	0.025001
-21.090	0.024815
-21.085	0.024471
-21.080	0.024132
-21.075	0.023954
-21.070	0.023798
-21.065	0.023567
-21.060	0.023286
-21.055	0.023047
-21.050	0.022893
-21.045	0.022768
-21.040	0.022666
-21.035	0.022536
-21.030	0.022337
-21.025	0.022156
-21.020	0.022049
-21.015	0.021928
-21.010	0.021804
-21.005	0.021733
-21.000	0.021640
-20.995	0.021562
-20.990	0.021419
-20.985	0.021206
-20.980	0.020993
-20.975	0.020860
-20.970	0.020702
-20.965	0.020595
-20.960	0.020447
-20.955	0.020300
-20.950	0.020152
-20.945	0.020120
-20.940	0.019950
-20.935	0.019833
-20.930	0.019740
-20.925	0.019651
-20.920	0.019517
-20.915	0.019420
-20.910	0.019303
-20.905	0.019177
-20.900	0.019084
-20.895	0.018992
-20.890	0.018854
-20.885	0.018767
-20.880	0.018662
-20.875	0.018600
-20.870	0.018512
-20.865	0.018450
-20.860	0.018356
-20.855	0.018311
-20.850	0.018223
-20.845	0.018069
-20.840	0.017968
-20.835	0.017858
-20.830	0.017730
-20.825	0.017667
-20.820	0.017555
-20.815	0.017459
-20.810	0.017401
-20.805	0.017310
-20.800	0.017203
-20.795	0.017154
-20.790	0.017134
-20.785	0.017058
-20.780	0.016991
-20.775	0.016910
-20.770	0.016847
-20.765	0.016740
-20.760	0.016718
-20.755	0.016627
-20.750	0.016517
-20.745	0.016450
-20.740	0.016382
-20.735	0.016317
-20.730	0.016210
-20.725	0.016146
-20.720	0.016125
-20.715	0.016065
-20.710	0.015994
-20.705	0.015891
-20.700	0.015829
-20.695	0.015733
-20.690	0.015700
-20.685	0.015666
-20.680	0.015601
-20.675	0.015560
-20.670	0.015487
-20.665	0.015466
-20.660	0.015407
-20.655	0.015373
-20.650	0.015298
-20.645	0.015254
-20.640	0.015158
-20.635	0.015130
-20.630	0.015069
-20.625	0.015025
-20.620	0.014947
-20.615	0.014879
-20.610	0.014873
-20.605	0.014793
-20.600	0.014777
-20.595	0.014736
-20.590	0.014679
-20.585	0.014662
-20.580	0.014596
-20.575	0.014536
-20.570	0.014467
-20.565	0.014421
-20.560	0.014359
-20.555	0.014285
-20.550	0.014253
-20.545	0.014225
-20.540	0.014163
-20.535	0.014130
-20.530	0.014105
-20.525	0.014089
-20.520	0.014041
-20.515	0.013988
-20.510	0.013942
-20.505	0.013937
