PK2650 Deflection Data
Z Position (mm)	110.000	W Position (deg)	0.00
Preform ID	Diameter (mm)	Time Stamp	Start Time	Operator	Serial Number
Test 1	25	03-Nov-22 18:05:01	03-Nov-22 18:07:35	[no user]	266007708
Radius (mm)	Deflection
-26.360	-0.000036
-26.355	-0.000043
-26.350	0.000004
-26.345	-0.000016
-26.340	-0.000043
-26.335	0.000004
-26.330	-0.000016
-26.325	0.000011
-26.320	-0.000003
-26.315	0.000038
-26.310	0.000004
-26.305	-0.000030
-26.300	-0.000009
-26.295	-0.000016
-26.290	-0.000010
-26.285	-0.000057
-26.280	-0.000024
-26.275	-0.000010
-26.270	-0.000003
-26.265	0.000004
-26.260	-0.000003
-26.255	-0.000003
-26.250	0.000010
-26.245	0.000017
-26.240	-0.000031
-26.235	-0.000031
-26.230	-0.000003
-26.225	-0.000003
-26.220	-0.000031
-26.215	0.000003
-26.210	-0.000018
-26.205	-0.000011
-26.200	-0.000011
-26.195	-0.000011
-26.190	0.000003
-26.185	0.000023
-26.180	-0.000004
-26.175	0.000023
-26.170	0.000003
-26.165	0.000024
-26.160	-0.000024
-26.155	-0.000038
-26.150	-0.000018
-26.145	-0.000038
-26.140	-0.000011
-26.135	-0.000031
-26.130	-0.000018
-26.125	0.000003
-26.120	0.000016
-26.115	0.000016
-26.110	-0.000011
-26.105	-0.000005
-26.100	-0.000011
-26.095	-0.000038
-26.090	0.000002
-26.085	-0.000032
-26.080	0.000009
-26.075	-0.000039
-26.070	-0.000012
-26.065	-0.000012
-26.060	-0.000025
-26.055	0.000002
-26.050	0.000002
-26.045	-0.000012
-26.040	-0.000019
-26.035	-0.000018
-26.030	-0.000004
-26.025	-0.000025
-26.020	-0.000046
-26.015	-0.000026
-26.010	-0.000006
-26.005	-0.000039
-26.000	-0.000019
-25.995	0.000002
-25.990	-0.000005
-25.985	-0.000019
-25.980	0.000001
-25.975	-0.000006
-25.970	-0.000033
-25.965	-0.000032
-25.960	-0.000012
-25.955	0.000001
-25.950	-0.000006
-25.945	0.000001
-25.940	-0.000026
-25.935	-0.000006
-25.930	0.000001
-25.925	0.000028
-25.920	0.000014
-25.915	0.000014
-25.910	0.000035
-25.905	0.000001
-25.900	-0.000019
-25.895	0.000022
-25.890	-0.000033
-25.885	-0.000033
-25.880	0.000001
-25.875	0.000001
-25.870	-0.000013
-25.865	0.000008
-25.860	0.000001
-25.855	0.000048
-25.850	-0.000013
-25.845	-0.000006
-25.840	-0.000020
-25.835	-0.000006
-25.830	-0.000033
-25.825	-0.000033
-25.820	-0.000047
-25.815	-0.000007
-25.810	-0.000020
-25.805	-0.000020
-25.800	-0.000034
-25.795	-0.000006
-25.790	-0.000013
-25.785	-0.000013
-25.780	-0.000014
-25.775	-0.000007
-25.770	-0.000006
-25.765	-0.000019
-25.760	-0.000033
-25.755	-0.000020
-25.750	-0.000040
-25.745	-0.000041
-25.740	-0.000020
-25.735	0.000007
-25.730	-0.000013
-25.725	0.000034
-25.720	0.000000
-25.715	0.000000
-25.710	-0.000000
-25.705	-0.000000
-25.700	0.000007
-25.695	-0.000013
-25.690	-0.000021
-25.685	-0.000007
-25.680	-0.000028
-25.675	-0.000021
-25.670	-0.000014
-25.665	0.000013
-25.660	0.000020
-25.655	-0.000007
-25.650	-0.000007
-25.645	-0.000000
-25.640	0.000013
-25.635	-0.000020
-25.630	-0.000013
-25.625	0.000007
-25.620	-0.000021
-25.615	-0.000014
-25.610	-0.000021
-25.605	0.000013
-25.600	-0.000001
-25.595	-0.000014
-25.590	-0.000007
-25.585	-0.000007
-25.580	-0.000001
-25.575	-0.000034
-25.570	-0.000027
-25.565	0.000007
-25.560	-0.000014
-25.555	-0.000055
-25.550	-0.000001
-25.545	-0.000021
-25.540	-0.000021
-25.535	-0.000014
-25.530	0.000013
-25.525	-0.000008
-25.520	-0.000001
-25.515	-0.000008
-25.510	-0.000035
-25.505	-0.000014
-25.500	0.000006
-25.495	-0.000000
-25.490	-0.000021
-25.485	-0.000028
-25.480	-0.000015
-25.475	0.000019
-25.470	-0.000008
-25.465	-0.000015
-25.460	-0.000015
-25.455	-0.000001
-25.450	-0.000021
-25.445	-0.000001
-25.440	0.000005
-25.435	-0.000008
-25.430	-0.000014
-25.425	-0.000001
-25.420	-0.000022
-25.415	-0.000009
-25.410	-0.000022
-25.405	-0.000022
-25.400	0.000019
-25.395	0.000019
-25.390	0.000005
-25.385	0.000026
-25.380	0.000012
-25.375	-0.000002
-25.370	-0.000022
-25.365	-0.000028
-25.360	-0.000042
-25.355	-0.000008
-25.350	-0.000036
-25.345	-0.000029
-25.340	0.000012
-25.335	-0.000022
-25.330	-0.000029
-25.325	0.000025
-25.320	-0.000002
-25.315	-0.000015
-25.310	-0.000022
-25.305	0.000012
-25.300	-0.000008
-25.295	-0.000015
-25.290	-0.000022
-25.285	-0.000036
-25.280	-0.000036
-25.275	0.000018
-25.270	-0.000009
-25.265	-0.000009
-25.260	-0.000002
-25.255	0.000025
-25.250	0.000005
-25.245	0.000025
-25.240	0.000011
-25.235	0.000025
-25.230	-0.000002
-25.225	-0.000015
-25.220	0.000004
-25.215	0.000011
-25.210	-0.000002
-25.205	-0.000022
-25.200	-0.000016
-25.195	0.000011
-25.190	0.000025
-25.185	0.000025
-25.180	-0.000003
-25.175	-0.000009
-25.170	-0.000043
-25.165	-0.000015
-25.160	-0.000016
-25.155	-0.000002
-25.150	-0.000030
-25.145	-0.000016
-25.140	-0.000023
-25.135	0.000004
-25.130	0.000004
-25.125	-0.000002
-25.120	0.000004
-25.115	0.000011
-25.110	0.000018
-25.105	0.000004
-25.100	-0.000016
-25.095	-0.000009
-25.090	-0.000003
-25.085	-0.000016
-25.080	0.000011
-25.075	-0.000016
-25.070	-0.000003
-25.065	-0.000016
-25.060	0.000011
-25.055	-0.000023
-25.050	0.000038
-25.045	-0.000010
-25.040	-0.000023
-25.035	-0.000009
-25.030	0.000004
-25.025	0.000004
-25.020	-0.000010
-25.015	0.000017
-25.010	-0.000010
-25.005	-0.000017
-25.000	0.000004
-24.995	-0.000030
-24.990	0.000024
-24.985	0.000038
-24.980	0.000011
-24.975	-0.000037
-24.970	-0.000016
-24.965	0.000011
-24.960	0.000011
-24.955	0.000024
-24.950	-0.000023
-24.945	-0.000003
-24.940	-0.000003
-24.935	-0.000003
-24.930	0.000011
-24.925	-0.000003
-24.920	0.000004
-24.915	0.000011
-24.910	0.000044
-24.905	-0.000010
-24.900	-0.000009
-24.895	0.000018
-24.890	-0.000010
-24.885	-0.000023
-24.880	-0.000010
-24.875	-0.000017
-24.870	-0.000010
-24.865	-0.000010
-24.860	-0.000003
-24.855	-0.000010
-24.850	0.000011
-24.845	0.000011
-24.840	0.000017
-24.835	0.000004
-24.830	0.000004
-24.825	-0.000023
-24.820	-0.000003
-24.815	-0.000003
-24.810	0.000017
-24.805	0.000004
-24.800	-0.000023
-24.795	-0.000010
-24.790	0.000010
-24.785	-0.000003
-24.780	-0.000010
-24.775	0.000003
-24.770	0.000004
-24.765	-0.000003
-24.760	-0.000010
-24.755	-0.000010
-24.750	0.000010
-24.745	-0.000024
-24.740	-0.000010
-24.735	0.000003
-24.730	0.000010
-24.725	0.000017
-24.720	0.000030
-24.715	0.000017
-24.710	0.000044
-24.705	0.000038
-24.700	-0.000003
-24.695	0.000018
-24.690	-0.000010
-24.685	0.000017
-24.680	-0.000031
-24.675	0.000003
-24.670	0.000003
-24.665	-0.000003
-24.660	0.000004
-24.655	0.000024
-24.650	0.000017
-24.645	0.000037
-24.640	0.000017
-24.635	0.000010
-24.630	-0.000017
-24.625	0.000024
-24.620	-0.000010
-24.615	0.000010
-24.610	0.000017
-24.605	-0.000004
-24.600	-0.000010
-24.595	0.000037
-24.590	0.000010
-24.585	0.000017
-24.580	0.000037
-24.575	0.000003
-24.570	-0.000023
-24.565	0.000011
-24.560	-0.000003
-24.555	0.000010
-24.550	-0.000018
-24.545	-0.000004
-24.540	-0.000004
-24.535	0.000024
-24.530	0.000024
-24.525	0.000030
-24.520	0.000037
-24.515	0.000024
-24.510	0.000037
-24.505	0.000010
-24.500	0.000010
-24.495	0.000017
-24.490	0.000003
-24.485	-0.000004
-24.480	0.000010
-24.475	0.000023
-24.470	0.000023
-24.465	0.000030
-24.460	0.000030
-24.455	0.000043
-24.450	-0.000024
-24.445	0.000016
-24.440	0.000023
-24.435	0.000024
-24.430	0.000044
-24.425	-0.000004
-24.420	-0.000004
-24.415	0.000009
-24.410	0.000030
-24.405	-0.000004
-24.400	0.000016
-24.395	0.000017
-24.390	-0.000004
-24.385	0.000037
-24.380	0.000030
-24.375	0.000016
-24.370	-0.000004
-24.365	0.000003
-24.360	-0.000011
-24.355	0.000023
-24.350	0.000016
-24.345	0.000016
-24.340	0.000002
-24.335	-0.000004
-24.330	0.000043
-24.325	0.000009
-24.320	0.000029
-24.315	-0.000005
-24.310	0.000029
-24.305	-0.000011
-24.300	-0.000017
-24.295	0.000030
-24.290	-0.000011
-24.285	-0.000005
-24.280	-0.000025
-24.275	0.000009
-24.270	0.000029
-24.265	0.000016
-24.260	0.000002
-24.255	0.000023
-24.250	0.000022
-24.245	-0.000025
-24.240	0.000029
-24.235	0.000009
-24.230	0.000009
-24.225	0.000042
-24.220	-0.000005
-24.215	0.000009
-24.210	0.000022
-24.205	0.000015
-24.200	0.000036
-24.195	0.000015
-24.190	0.000015
-24.185	0.000022
-24.180	0.000008
-24.175	0.000008
-24.170	0.000043
-24.165	0.000016
-24.160	0.000002
-24.155	0.000015
-24.150	-0.000012
-24.145	0.000015
-24.140	0.000056
-24.135	0.000042
-24.130	0.000049
-24.125	0.000022
-24.120	0.000008
-24.115	0.000042
-24.110	0.000035
-24.105	0.000008
-24.100	0.000009
-24.095	-0.000019
-24.090	-0.000006
-24.085	0.000008
-24.080	-0.000012
-24.075	-0.000005
-24.070	0.000015
-24.065	0.000035
-24.060	0.000035
-24.055	-0.000033
-24.050	0.000008
-24.045	0.000021
-24.040	0.000001
-24.035	-0.000005
-24.030	0.000002
-24.025	0.000001
-24.020	-0.000019
-24.015	-0.000026
-24.010	0.000008
-24.005	-0.000006
-24.000	-0.000006
-23.995	0.000001
-23.990	0.000001
-23.985	-0.000006
-23.980	0.000028
-23.975	0.000007
-23.970	-0.000013
-23.965	0.000015
-23.960	0.000001
-23.955	0.000000
-23.950	0.000007
-23.945	-0.000013
-23.940	0.000007
-23.935	-0.000033
-23.930	0.000014
-23.925	0.000007
-23.920	0.000014
-23.915	0.000034
-23.910	0.000013
-23.905	-0.000013
-23.900	-0.000013
-23.895	-0.000013
-23.890	-0.000021
-23.885	-0.000021
-23.880	-0.000007
-23.875	-0.000000
-23.870	-0.000000
-23.865	-0.000007
-23.860	-0.000021
-23.855	-0.000027
-23.850	-0.000000
-23.845	-0.000000
-23.840	0.000013
-23.835	-0.000013
-23.830	-0.000000
-23.825	-0.000035
-23.820	-0.000028
-23.815	-0.000048
-23.810	-0.000021
-23.805	-0.000028
-23.800	-0.000007
-23.795	-0.000001
-23.790	0.000006
-23.785	-0.000028
-23.780	-0.000021
-23.775	-0.000028
-23.770	-0.000007
-23.765	-0.000054
-23.760	-0.000014
-23.755	-0.000021
-23.750	-0.000008
-23.745	-0.000021
-23.740	-0.000008
-23.735	-0.000014
-23.730	-0.000042
-23.725	-0.000008
-23.720	-0.000022
-23.715	-0.000015
-23.710	-0.000035
-23.705	-0.000008
-23.700	-0.000041
-23.695	-0.000014
-23.690	-0.000056
-23.685	0.000005
-23.680	-0.000022
-23.675	-0.000015
-23.670	0.000005
-23.665	-0.000022
-23.660	-0.000001
-23.655	-0.000001
-23.650	-0.000015
-23.645	-0.000029
-23.640	-0.000062
-23.635	-0.000008
-23.630	-0.000028
-23.625	-0.000008
-23.620	-0.000063
-23.615	-0.000056
-23.610	-0.000022
-23.605	-0.000022
-23.600	-0.000049
-23.595	-0.000008
-23.590	-0.000022
-23.585	-0.000036
-23.580	-0.000050
-23.575	-0.000036
-23.570	-0.000022
-23.565	-0.000028
-23.560	-0.000056
-23.555	-0.000056
-23.550	-0.000057
-23.545	-0.000056
-23.540	-0.000070
-23.535	-0.000043
-23.530	-0.000043
-23.525	-0.000043
-23.520	-0.000036
-23.515	-0.000023
-23.510	-0.000057
-23.505	-0.000056
-23.500	-0.000090
-23.495	-0.000083
-23.490	-0.000064
-23.485	-0.000091
-23.480	-0.000084
-23.475	-0.000077
-23.470	-0.000070
-23.465	-0.000030
-23.460	-0.000077
-23.455	-0.000070
-23.450	-0.000044
-23.445	-0.000064
-23.440	-0.000077
-23.435	-0.000097
-23.430	-0.000063
-23.425	-0.000105
-23.420	-0.000064
-23.415	-0.000024
-23.410	-0.000064
-23.405	-0.000071
-23.400	-0.000064
-23.395	-0.000030
-23.390	-0.000071
-23.385	-0.000071
-23.380	-0.000044
-23.375	-0.000084
-23.370	-0.000077
-23.365	-0.000044
-23.360	-0.000078
-23.355	-0.000085
-23.350	-0.000085
-23.345	-0.000071
-23.340	-0.000058
-23.335	-0.000044
-23.330	-0.000058
-23.325	-0.000058
-23.320	-0.000044
-23.315	-0.000051
-23.310	-0.000085
-23.305	-0.000038
-23.300	-0.000078
-23.295	-0.000064
-23.290	-0.000078
-23.285	-0.000085
-23.280	-0.000052
-23.275	-0.000045
-23.270	-0.000065
-23.265	-0.000065
-23.260	-0.000059
-23.255	-0.000065
-23.250	-0.000045
-23.245	-0.000065
-23.240	-0.000058
-23.235	-0.000064
-23.230	-0.000092
-23.225	-0.000066
-23.220	-0.000066
-23.215	-0.000059
-23.210	-0.000065
-23.205	-0.000038
-23.200	-0.000065
-23.195	-0.000038
-23.190	-0.000052
-23.185	-0.000045
-23.180	-0.000039
-23.175	-0.000066
-23.170	-0.000059
-23.165	-0.000058
-23.160	-0.000086
-23.155	-0.000072
-23.150	-0.000059
-23.145	-0.000066
-23.140	-0.000086
-23.135	-0.000045
-23.130	-0.000052
-23.125	-0.000079
-23.120	-0.000059
-23.115	-0.000039
-23.110	-0.000046
-23.105	-0.000065
-23.100	-0.000092
-23.095	-0.000072
-23.090	-0.000080
-23.085	-0.000066
-23.080	-0.000059
-23.075	-0.000100
-23.070	-0.000046
-23.065	-0.000046
-23.060	-0.000086
-23.055	-0.000073
-23.050	-0.000073
-23.045	-0.000060
-23.040	-0.000060
-23.035	-0.000059
-23.030	-0.000066
-23.025	-0.000080
-23.020	-0.000046
-23.015	-0.000053
-23.010	-0.000060
-23.005	-0.000060
-23.000	-0.000094
-22.995	-0.000080
-22.990	-0.000087
-22.985	-0.000060
-22.980	-0.000046
-22.975	-0.000087
-22.970	-0.000059
-22.965	-0.000046
-22.960	-0.000087
-22.955	-0.000087
-22.950	-0.000094
-22.945	-0.000053
-22.940	-0.000094
-22.935	-0.000066
-22.930	-0.000046
-22.925	-0.000019
-22.920	-0.000046
-22.915	-0.000047
-22.910	-0.000053
-22.905	-0.000067
-22.900	-0.000060
-22.895	-0.000067
-22.890	-0.000060
-22.885	-0.000067
-22.880	-0.000060
-22.875	-0.000054
-22.870	-0.000067
-22.865	-0.000087
-22.860	-0.000054
-22.855	-0.000040
-22.850	-0.000054
-22.845	-0.000081
-22.840	-0.000053
-22.835	-0.000060
-22.830	-0.000073
-22.825	-0.000074
-22.820	-0.000108
-22.815	-0.000081
-22.810	-0.000081
-22.805	-0.000074
-22.800	-0.000060
-22.795	-0.000060
-22.790	-0.000060
-22.785	-0.000067
-22.780	-0.000054
-22.775	-0.000061
-22.770	-0.000060
-22.765	-0.000053
-22.760	-0.000088
-22.755	-0.000047
-22.750	-0.000061
-22.745	-0.000095
-22.740	-0.000074
-22.735	-0.000040
-22.730	-0.000061
-22.725	-0.000068
-22.720	-0.000068
-22.715	-0.000074
-22.710	-0.000061
-22.705	-0.000061
-22.700	-0.000094
-22.695	-0.000067
-22.690	-0.000088
-22.685	-0.000054
-22.680	-0.000088
-22.675	-0.000075
-22.670	-0.000081
-22.665	-0.000054
-22.660	-0.000081
-22.655	-0.000068
-22.650	-0.000055
-22.645	-0.000068
-22.640	-0.000075
-22.635	-0.000081
-22.630	-0.000054
-22.625	-0.000089
-22.620	-0.000116
-22.615	-0.000089
-22.610	-0.000075
-22.605	-0.000068
-22.600	-0.000034
-22.595	-0.000068
-22.590	-0.000062
-22.585	-0.000062
-22.580	-0.000055
-22.575	-0.000089
-22.570	-0.000095
-22.565	-0.000081
-22.560	-0.000082
-22.555	-0.000068
-22.550	-0.000068
-22.545	-0.000069
-22.540	-0.000062
-22.535	-0.000041
-22.530	-0.000075
-22.525	-0.000075
-22.520	-0.000042
-22.515	-0.000062
-22.510	-0.000069
-22.505	-0.000062
-22.500	-0.000088
-22.495	-0.000062
-22.490	-0.000083
-22.485	-0.000069
-22.480	-0.000089
-22.475	-0.000076
-22.470	-0.000049
-22.465	-0.000048
-22.460	-0.000069
-22.455	-0.000042
-22.450	-0.000049
-22.445	-0.000055
-22.440	-0.000055
-22.435	-0.000068
-22.430	-0.000089
-22.425	-0.000082
-22.420	-0.000049
-22.415	-0.000062
-22.410	-0.000076
-22.405	-0.000049
-22.400	-0.000062
-22.395	-0.000049
-22.390	-0.000076
-22.385	-0.000062
-22.380	-0.000062
-22.375	-0.000069
-22.370	-0.000062
-22.365	-0.000096
-22.360	-0.000076
-22.355	-0.000097
-22.350	-0.000070
-22.345	-0.000063
-22.340	-0.000063
-22.335	-0.000069
-22.330	-0.000103
-22.325	-0.000076
-22.320	-0.000069
-22.315	-0.000043
-22.310	-0.000083
-22.305	-0.000062
-22.300	-0.000076
-22.295	-0.000083
-22.290	-0.000056
-22.285	-0.000090
-22.280	-0.000063
-22.275	-0.000056
-22.270	-0.000049
-22.265	-0.000090
-22.260	-0.000036
-22.255	-0.000063
-22.250	-0.000070
-22.245	-0.000049
-22.240	-0.000069
-22.235	-0.000089
-22.230	-0.000049
-22.225	-0.000056
-22.220	-0.000090
-22.215	-0.000104
-22.210	-0.000077
-22.205	-0.000077
-22.200	-0.000043
-22.195	-0.000076
-22.190	-0.000043
-22.185	-0.000056
-22.180	-0.000056
-22.175	-0.000083
-22.170	-0.000090
-22.165	-0.000076
-22.160	-0.000063
-22.155	-0.000070
-22.150	-0.000090
-22.145	-0.000063
-22.140	-0.000056
-22.135	-0.000029
-22.130	-0.000029
-22.125	-0.000036
-22.120	-0.000083
-22.115	-0.000084
-22.110	-0.000050
-22.105	-0.000063
-22.100	-0.000056
-22.095	-0.000110
-22.090	-0.000070
-22.085	-0.000064
-22.080	-0.000091
-22.075	-0.000064
-22.070	-0.000070
-22.065	-0.000063
-22.060	-0.000057
-22.055	-0.000043
-22.050	-0.000050
-22.045	-0.000057
-22.040	-0.000056
-22.035	-0.000056
-22.030	-0.000077
-22.025	-0.000077
-22.020	-0.000091
-22.015	-0.000063
-22.010	-0.000064
-22.005	-0.000057
-22.000	-0.000077
-21.995	-0.000063
-21.990	-0.000064
-21.985	-0.000037
-21.980	-0.000084
-21.975	-0.000077
-21.970	-0.000077
-21.965	-0.000090
-21.960	-0.000091
-21.955	-0.000071
-21.950	-0.000078
-21.945	-0.000084
-21.940	-0.000071
-21.935	-0.000091
-21.930	-0.000057
-21.925	-0.000077
-21.920	-0.000050
-21.915	-0.000064
-21.910	-0.000044
-21.905	-0.000097
-21.900	-0.000057
-21.895	-0.000098
-21.890	-0.000084
-21.885	-0.000078
-21.880	-0.000077
-21.875	-0.000064
-21.870	-0.000050
-21.865	-0.000077
-21.860	-0.000057
-21.855	-0.000044
-21.850	-0.000057
-21.845	-0.000091
-21.840	-0.000084
-21.835	-0.000097
-21.830	-0.000064
-21.825	-0.000085
-21.820	-0.000085
-21.815	-0.000071
-21.810	-0.000078
-21.805	-0.000064
-21.800	-0.000078
-21.795	-0.000044
-21.790	-0.000044
-21.785	-0.000071
-21.780	-0.000064
-21.775	-0.000044
-21.770	-0.000057
-21.765	-0.000064
-21.760	-0.000085
-21.755	-0.000051
-21.750	-0.000051
-21.745	-0.000078
-21.740	-0.000078
-21.735	-0.000057
-21.730	-0.000058
-21.725	-0.000071
-21.720	-0.000065
-21.715	-0.000078
-21.710	-0.000085
-21.705	-0.000085
-21.700	-0.000091
-21.695	-0.000065
-21.690	-0.000065
-21.685	-0.000065
-21.680	-0.000045
-21.675	-0.000045
-21.670	-0.000065
-21.665	-0.000092
-21.660	-0.000051
-21.655	-0.000065
-21.650	-0.000065
-21.645	-0.000065
-21.640	-0.000058
-21.635	-0.000078
-21.630	-0.000065
-21.625	-0.000092
-21.620	-0.000072
-21.615	-0.000065
-21.610	-0.000072
-21.605	-0.000065
-21.600	-0.000051
-21.595	-0.000038
-21.590	-0.000045
-21.585	-0.000052
-21.580	-0.000059
-21.575	-0.000079
-21.570	-0.000052
-21.565	-0.000071
-21.560	-0.000072
-21.555	-0.000079
-21.550	-0.000086
-21.545	-0.000058
-21.540	-0.000065
-21.535	-0.000059
-21.530	-0.000052
-21.525	-0.000031
-21.520	-0.000018
-21.515	-0.000031
-21.510	-0.000025
-21.505	-0.000058
-21.500	-0.000051
-21.495	-0.000045
-21.490	-0.000045
-21.485	-0.000066
-21.480	-0.000045
-21.475	-0.000038
-21.470	-0.000031
-21.465	0.000003
-21.460	0.000016
-21.455	0.000030
-21.450	0.000043
-21.445	0.000077
-21.440	0.000132
-21.435	0.000282
-21.430	0.000459
-21.425	0.000760
-21.420	0.001150
-21.415	0.001720
-21.410	0.002418
-21.405	0.003411
-21.400	0.004559
-21.395	0.006007
-21.390	0.007669
-21.385	0.009676
-21.380	0.011918
-21.375	0.014630
-21.370	0.017534
-21.365	0.020714
-21.360	0.024095
-21.355	0.027603
-21.350	0.031178
-21.345	0.034747
-21.340	0.038400
-21.335	0.042149
-21.330	0.045666
-21.325	0.048962
-21.320	0.050483
-21.315	0.049674
-21.310	0.048851
-21.305	0.047665
-21.300	0.045587
-21.295	0.044487
-21.290	0.043653
-21.285	0.042684
-21.280	0.041812
-21.275	0.041238
-21.270	0.040343
-21.265	0.039077
-21.260	0.038106
-21.255	0.037180
-21.250	0.036098
-21.245	0.035809
-21.240	0.035027
-21.235	0.034114
-21.230	0.033961
-21.225	0.033365
-21.220	0.032705
-21.215	0.032209
-21.210	0.031801
-21.205	0.031350
-21.200	0.030985
-21.195	0.030729
-21.190	0.030355
-21.185	0.030359
-21.180	0.030167
-21.175	0.029258
-21.170	0.028431
-21.165	0.028141
-21.160	0.027905
-21.155	0.027477
-21.150	0.027073
-21.145	0.026922
-21.140	0.026824
-21.135	0.026974
-21.130	0.027115
-21.125	0.026432
-21.120	0.025734
-21.115	0.025454
-21.110	0.025285
-21.105	0.025047
-21.100	0.024866
-21.095	0.024712
-21.090	0.024518
-21.085	0.024225
-21.080	0.023884
-21.075	0.023763
-21.070	0.023575
-21.065	0.023346
-21.060	0.023102
-21.055	0.022860
-21.050	0.022637
-21.045	0.022543
-21.040	0.022439
-21.035	0.022295
-21.030	0.022139
-21.025	0.021973
-21.020	0.021846
-21.015	0.021707
-21.010	0.021578
-21.005	0.021532
-21.000	0.021472
-20.995	0.021375
-20.990	0.021258
-20.985	0.021050
-20.980	0.020822
-20.975	0.020683
-20.970	0.020578
-20.965	0.020446
-20.960	0.020283
-20.955	0.020168
-20.950	0.020049
-20.945	0.019961
-20.940	0.019834
-20.935	0.019722
-20.930	0.019596
-20.925	0.019492
-20.920	0.019397
-20.915	0.019231
-20.910	0.019151
-20.905	0.019030
-20.900	0.018916
-20.895	0.018865
-20.890	0.018695
-20.885	0.018639
-20.880	0.018526
-20.875	0.018459
-20.870	0.018373
-20.865	0.018301
-20.860	0.018235
-20.855	0.018146
-20.850	0.018076
-20.845	0.017916
-20.840	0.017791
-20.835	0.017696
-20.830	0.017578
-20.825	0.017491
-20.820	0.017414
-20.815	0.017326
-20.810	0.017224
-20.805	0.017173
-20.800	0.017102
-20.795	0.017018
-20.790	0.016949
-20.785	0.016902
-20.780	0.016861
-20.775	0.016803
