PK2650 Power Data
Z Position (mm)	100.000	W Position (deg)	216.00
Preform ID	Diameter (mm)	Time Stamp	Start Time	Operator	Serial Number
Test 1	25	03-Nov-22 18:05:01	03-Nov-22 18:06:13	[no user]	266007708
Radius (mm)	Power
-26.215	82712.4
-26.210	82721.4
-26.205	82717.4
-26.200	82728.4
-26.195	82722.4
-26.190	82715.4
-26.185	82695.5
-26.180	82707.4
-26.175	82725.4
-26.170	82737.4
-26.165	82724.4
-26.160	82728.4
-26.155	82732.4
-26.150	82735.4
-26.145	82742.4
-26.140	82745.4
-26.135	82750.4
-26.130	82752.4
-26.125	82746.4
-26.120	82714.4
-26.115	82723.4
-26.110	82745.4
-26.105	82748.4
-26.100	82755.4
-26.095	82739.4
-26.090	82740.4
-26.085	82744.4
-26.080	82743.4
-26.075	82749.4
-26.070	82766.4
-26.065	82756.4
-26.060	82765.4
-26.055	82726.4
-26.050	82730.4
-26.045	82749.4
-26.040	82777.4
-26.035	82759.4
-26.030	82765.4
-26.025	82769.4
-26.020	82770.4
-26.015	82768.4
-26.010	82771.4
-26.005	82775.4
-26.000	82775.4
-25.995	82772.4
-25.990	82751.4
-25.985	82733.4
-25.980	82753.4
-25.975	82779.4
-25.970	82773.4
-25.965	82759.4
-25.960	82758.4
-25.955	82753.4
-25.950	82764.4
-25.945	82765.4
-25.940	82771.4
-25.935	82774.4
-25.930	82785.4
-25.925	82775.4
-25.920	82747.4
-25.915	82743.4
-25.910	82767.4
-25.905	82775.4
-25.900	82779.4
-25.895	82785.4
-25.890	82779.4
-25.885	82784.4
-25.880	82792.4
-25.875	82792.4
-25.870	82792.4
-25.865	82793.4
-25.860	82787.4
-25.855	82758.4
-25.850	82766.4
-25.845	82786.4
-25.840	82793.4
-25.835	82782.4
-25.830	82779.4
-25.825	82774.4
-25.820	82777.4
-25.815	82782.4
-25.810	82788.4
-25.805	82778.4
-25.800	82790.4
-25.795	82786.4
-25.790	82774.4
-25.785	82753.4
-25.780	82769.4
-25.775	82788.4
-25.770	82785.4
-25.765	82784.4
-25.760	82799.4
-25.755	82791.4
-25.750	82798.4
-25.745	82797.4
-25.740	82802.4
-25.735	82799.4
-25.730	82810.4
-25.725	82788.4
-25.720	82763.4
-25.715	82770.4
-25.710	82792.4
-25.705	82786.4
-25.700	82783.4
-25.695	82783.4
-25.690	82783.4
-25.685	82780.4
-25.680	82790.4
-25.675	82796.4
-25.670	82799.4
-25.665	82795.4
-25.660	82804.4
-25.655	82764.4
-25.650	82762.4
-25.645	82774.4
-25.640	82802.4
-25.635	82793.4
-25.630	82790.4
-25.625	82790.4
-25.620	82790.4
-25.615	82794.4
-25.610	82802.4
-25.605	82802.4
-25.600	82800.4
-25.595	82801.4
-25.590	82775.4
-25.585	82760.4
-25.580	82785.4
-25.575	82798.4
-25.570	82798.4
-25.565	82783.4
-25.560	82785.4
-25.555	82786.4
-25.550	82793.4
-25.545	82790.4
-25.540	82797.4
-25.535	82792.4
-25.530	82800.4
-25.525	82791.4
-25.520	82759.4
-25.515	82761.4
-25.510	82788.4
-25.505	82791.4
-25.500	82793.4
-25.495	82788.4
-25.490	82792.4
-25.485	82799.4
-25.480	82801.4
-25.475	82802.4
-25.470	82803.4
-25.465	82802.4
-25.460	82801.4
-25.455	82763.4
-25.450	82762.4
-25.445	82778.4
-25.440	82794.4
-25.435	82790.4
-25.430	82787.4
-25.425	82783.4
-25.420	82787.4
-25.415	82793.4
-25.410	82793.4
-25.405	82790.4
-25.400	82797.4
-25.395	82797.4
-25.390	82782.4
-25.385	82751.4
-25.380	82764.4
-25.375	82787.4
-25.370	82793.4
-25.365	82788.4
-25.360	82789.4
-25.355	82796.4
-25.350	82791.4
-25.345	82795.4
-25.340	82805.4
-25.335	82800.4
-25.330	82799.4
-25.325	82775.4
-25.320	82766.4
-25.315	82772.4
-25.310	82793.4
-25.305	82790.4
-25.300	82784.4
-25.295	82778.4
-25.290	82792.4
-25.285	82783.4
-25.280	82781.4
-25.275	82782.4
-25.270	82791.4
-25.265	82785.4
-25.260	82793.4
-25.255	82762.4
-25.250	82751.4
-25.245	82769.4
-25.240	82785.4
-25.235	82777.4
-25.230	82784.4
-25.225	82790.4
-25.220	82793.4
-25.215	82787.4
-25.210	82788.4
-25.205	82801.4
-25.200	82802.4
-25.195	82802.4
-25.190	82770.4
-25.185	82762.4
-25.180	82781.4
-25.175	82792.4
-25.170	82793.4
-25.165	82782.4
-25.160	82774.4
-25.155	82781.4
-25.150	82783.4
-25.145	82777.4
-25.140	82779.4
-25.135	82777.4
-25.130	82791.4
-25.125	82771.4
-25.120	82752.4
-25.115	82756.4
-25.110	82791.4
-25.105	82789.4
-25.100	82781.4
-25.095	82784.4
-25.090	82782.4
-25.085	82787.4
-25.080	82782.4
-25.075	82787.4
-25.070	82793.4
-25.065	82794.4
-25.060	82793.4
-25.055	82750.4
-25.050	82760.4
-25.045	82780.4
-25.040	82799.4
-25.035	82779.4
-25.030	82776.4
-25.025	82774.4
-25.020	82779.4
-25.015	82776.4
-25.010	82782.4
-25.005	82780.4
-25.000	82789.4
-24.995	82787.4
-24.990	82759.4
-24.985	82743.4
-24.980	82763.4
-24.975	82782.4
-24.970	82775.4
-24.965	82777.4
-24.960	82779.4
-24.955	82782.4
-24.950	82781.4
-24.945	82784.4
-24.940	82781.4
-24.935	82793.4
-24.930	82789.4
-24.925	82768.4
-24.920	82743.4
-24.915	82748.4
-24.910	82774.4
-24.905	82773.4
-24.900	82778.4
-24.895	82766.4
-24.890	82765.4
-24.885	82762.4
-24.880	82763.4
-24.875	82767.4
-24.870	82774.4
-24.865	82780.4
-24.860	82777.4
-24.855	82734.4
-24.850	82742.4
-24.845	82749.4
-24.840	82771.4
-24.835	82773.4
-24.830	82771.4
-24.825	82765.4
-24.820	82765.4
-24.815	82765.4
-24.810	82771.4
-24.805	82771.4
-24.800	82775.4
-24.795	82772.4
-24.790	82743.4
-24.785	82734.4
-24.780	82756.4
-24.775	82766.4
-24.770	82758.4
-24.765	82751.4
-24.760	82754.4
-24.755	82748.4
-24.750	82749.4
-24.745	82754.4
-24.740	82755.4
-24.735	82759.4
-24.730	82760.4
-24.725	82746.4
-24.720	82720.4
-24.715	82722.4
-24.710	82754.4
-24.705	82751.4
-24.700	82749.4
-24.695	82745.4
-24.690	82748.4
-24.685	82747.4
-24.680	82752.4
-24.675	82758.4
-24.670	82760.4
-24.665	82749.4
-24.660	82753.4
-24.655	82716.4
-24.650	82723.4
-24.645	82734.4
-24.640	82755.4
-24.635	82746.4
-24.630	82740.4
-24.625	82731.4
-24.620	82731.4
-24.615	82736.4
-24.610	82731.4
-24.605	82738.4
-24.600	82748.4
-24.595	82740.4
-24.590	82721.4
-24.585	82702.5
-24.580	82713.4
-24.575	82730.4
-24.570	82727.4
-24.565	82734.4
-24.560	82727.4
-24.555	82732.4
-24.550	82735.4
-24.545	82733.4
-24.540	82742.4
-24.535	82740.4
-24.530	82743.4
-24.525	82719.4
-24.520	82703.4
-24.515	82715.4
-24.510	82738.4
-24.505	82729.4
-24.500	82716.4
-24.495	82713.4
-24.490	82717.4
-24.485	82716.4
-24.480	82715.4
-24.475	82717.4
-24.470	82731.4
-24.465	82729.4
-24.460	82728.4
-24.455	82685.5
-24.450	82694.5
-24.445	82716.4
-24.440	82730.4
-24.435	82720.4
-24.430	82723.4
-24.425	82715.4
-24.420	82718.4
-24.415	82732.4
-24.410	82732.4
-24.405	82730.4
-24.400	82729.4
-24.395	82722.4
-24.390	82695.5
-24.385	82697.5
-24.380	82719.4
-24.375	82719.4
-24.370	82721.4
-24.365	82707.4
-24.360	82707.5
-24.355	82710.4
-24.350	82719.4
-24.345	82707.4
-24.340	82717.4
-24.335	82725.4
-24.330	82714.4
-24.325	82698.5
-24.320	82674.5
-24.315	82683.5
-24.310	82711.4
-24.305	82705.4
-24.300	82708.5
-24.295	82702.5
-24.290	82709.4
-24.285	82712.4
-24.280	82717.4
-24.275	82716.4
-24.270	82730.4
-24.265	82717.4
-24.260	82716.4
-24.255	82680.5
-24.250	82688.5
-24.245	82706.4
-24.240	82716.4
-24.235	82703.5
-24.230	82710.4
-24.225	82704.5
-24.220	82708.4
-24.215	82706.4
-24.210	82708.4
-24.205	82713.4
-24.200	82714.4
-24.195	82708.4
-24.190	82688.5
-24.185	82668.5
-24.180	82698.5
-24.175	82709.4
-24.170	82718.4
-24.165	82705.5
-24.160	82712.4
-24.155	82714.4
-24.150	82713.4
-24.145	82713.4
-24.140	82724.4
-24.135	82722.4
-24.130	82719.4
-24.125	82686.5
-24.120	82679.5
-24.115	82699.5
-24.110	82718.4
-24.105	82715.4
-24.100	82703.5
-24.095	82700.5
-24.090	82701.5
-24.085	82690.5
-24.080	82703.5
-24.075	82705.5
-24.070	82703.5
-24.065	82710.4
-24.060	82709.4
-24.055	82677.5
-24.050	82682.5
-24.045	82697.5
-24.040	82708.4
-24.035	82709.5
-24.030	82712.4
-24.025	82709.4
-24.020	82716.4
-24.015	82717.4
-24.010	82730.4
-24.005	82723.4
-24.000	82719.4
-23.995	82718.4
-23.990	82687.5
-23.985	82676.5
-23.980	82700.5
-23.975	82713.4
-23.970	82704.5
-23.965	82704.5
-23.960	82699.5
-23.955	82697.5
-23.950	82702.5
-23.945	82697.5
-23.940	82712.4
-23.935	82704.4
-23.930	82718.4
-23.925	82694.5
-23.920	82676.5
-23.915	82670.5
-23.910	82697.5
-23.905	82696.5
-23.900	82715.4
-23.895	82707.4
-23.890	82703.5
-23.885	82706.4
-23.880	82715.4
-23.875	82709.4
-23.870	82721.4
-23.865	82711.4
-23.860	82711.4
-23.855	82685.5
-23.850	82697.5
-23.845	82718.4
-23.840	82717.4
-23.835	82713.4
-23.830	82705.5
-23.825	82701.5
-23.820	82703.5
-23.815	82698.5
-23.810	82709.4
-23.805	82719.4
-23.800	82718.4
-23.795	82712.4
-23.790	82690.5
-23.785	82687.5
-23.780	82695.5
-23.775	82718.4
-23.770	82716.4
-23.765	82718.4
-23.760	82715.4
-23.755	82722.4
-23.750	82732.4
-23.745	82731.4
-23.740	82736.4
-23.735	82729.4
-23.730	82742.4
-23.725	82710.4
-23.720	82697.5
-23.715	82713.4
-23.710	82735.4
-23.705	82726.4
-23.700	82726.4
-23.695	82718.4
-23.690	82722.4
-23.685	82722.4
-23.680	82731.4
-23.675	82731.4
-23.670	82730.4
-23.665	82737.4
-23.660	82730.4
-23.655	82699.5
-23.650	82691.5
-23.645	82715.4
-23.640	82731.4
-23.635	82726.4
-23.630	82734.4
-23.625	82721.4
-23.620	82728.4
-23.615	82723.4
-23.610	82740.4
-23.605	82737.4
-23.600	82732.4
-23.595	82742.4
-23.590	82705.4
-23.585	82704.4
-23.580	82721.4
-23.575	82736.4
-23.570	82732.4
-23.565	82730.4
-23.560	82724.4
-23.555	82729.4
-23.550	82723.4
-23.545	82731.4
-23.540	82738.4
-23.535	82728.4
-23.530	82738.4
-23.525	82712.4
-23.520	82692.5
-23.515	82707.4
-23.510	82727.4
-23.505	82728.4
-23.500	82734.4
-23.495	82733.4
-23.490	82730.4
-23.485	82740.4
-23.480	82748.4
-23.475	82747.4
-23.470	82750.4
-23.465	82739.4
-23.460	82734.4
-23.455	82708.4
-23.450	82723.4
-23.445	82742.4
-23.440	82742.4
-23.435	82732.4
-23.430	82726.4
-23.425	82730.4
-23.420	82735.4
-23.415	82733.4
-23.410	82739.4
-23.405	82742.4
-23.400	82740.4
-23.395	82744.4
-23.390	82709.4
-23.385	82712.4
-23.380	82729.4
-23.375	82753.4
-23.370	82743.4
-23.365	82748.4
-23.360	82754.4
-23.355	82745.4
-23.350	82757.4
-23.345	82756.4
-23.340	82759.4
-23.335	82765.4
-23.330	82768.4
-23.325	82730.4
-23.320	82726.4
-23.315	82741.4
-23.310	82761.4
-23.305	82757.4
-23.300	82742.4
-23.295	82740.4
-23.290	82745.4
-23.285	82752.4
-23.280	82762.4
-23.275	82755.4
-23.270	82768.4
-23.265	82764.4
-23.260	82758.4
-23.255	82729.4
-23.250	82734.4
-23.245	82756.4
-23.240	82772.4
-23.235	82765.4
-23.230	82765.4
-23.225	82759.4
-23.220	82769.4
-23.215	82779.4
-23.210	82777.4
-23.205	82772.4
-23.200	82776.4
-23.195	82767.4
-23.190	82745.4
-23.185	82749.4
-23.180	82767.4
-23.175	82773.4
-23.170	82764.4
-23.165	82757.4
-23.160	82761.4
-23.155	82768.4
-23.150	82768.4
-23.145	82775.4
-23.140	82772.4
-23.135	82775.4
-23.130	82777.4
-23.125	82752.4
-23.120	82740.4
-23.115	82762.4
-23.110	82786.4
-23.105	82778.4
-23.100	82782.4
-23.095	82776.4
-23.090	82774.4
-23.085	82779.4
-23.080	82782.4
-23.075	82778.4
-23.070	82778.4
-23.065	82780.4
-23.060	82769.4
-23.055	82732.4
-23.050	82758.4
-23.045	82780.4
-23.040	82781.4
-23.035	82765.4
-23.030	82768.4
-23.025	82770.4
-23.020	82773.4
-23.015	82777.4
-23.010	82772.4
-23.005	82778.4
-23.000	82783.4
-22.995	82777.4
-22.990	82753.4
-22.985	82744.4
-22.980	82767.4
-22.975	82785.4
-22.970	82782.4
-22.965	82776.4
-22.960	82779.4
-22.955	82786.4
-22.950	82789.4
-22.945	82788.4
-22.940	82795.4
-22.935	82795.4
-22.930	82786.4
-22.925	82761.4
-22.920	82753.4
-22.915	82762.4
-22.910	82782.4
-22.905	82782.4
-22.900	82776.4
-22.895	82769.4
-22.890	82771.4
-22.885	82767.4
-22.880	82774.4
-22.875	82777.4
-22.870	82781.4
-22.865	82780.4
-22.860	82772.4
-22.855	82744.4
-22.850	82755.4
-22.845	82779.4
-22.840	82767.4
-22.835	82773.4
-22.830	82782.4
-22.825	82772.4
-22.820	82783.4
-22.815	82792.4
-22.810	82793.4
-22.805	82785.4
-22.800	82790.4
-22.795	82786.4
-22.790	82752.4
-22.785	82757.4
-22.780	82779.4
-22.775	82776.4
-22.770	82775.4
-22.765	82774.4
-22.760	82775.4
-22.755	82765.4
-22.750	82775.4
-22.745	82774.4
-22.740	82778.4
-22.735	82783.4
-22.730	82777.4
-22.725	82756.4
-22.720	82749.4
-22.715	82756.4
-22.710	82779.4
-22.705	82776.4
-22.700	82780.4
-22.695	82775.4
-22.690	82785.4
-22.685	82786.4
-22.680	82788.4
-22.675	82785.4
-22.670	82790.4
-22.665	82789.4
-22.660	82775.4
-22.655	82751.4
-22.650	82766.4
-22.645	82782.4
-22.640	82786.4
-22.635	82779.4
-22.630	82769.4
-22.625	82771.4
-22.620	82776.4
-22.615	82776.4
-22.610	82774.4
-22.605	82777.4
-22.600	82791.4
-22.595	82775.4
-22.590	82747.4
-22.585	82744.4
-22.580	82766.4
-22.575	82779.4
-22.570	82785.4
-22.565	82780.4
-22.560	82784.4
-22.555	82779.4
-22.550	82786.4
-22.545	82793.4
-22.540	82798.4
-22.535	82794.4
-22.530	82786.4
-22.525	82760.4
-22.520	82759.4
-22.515	82772.4
-22.510	82790.4
-22.505	82786.4
-22.500	82786.4
-22.495	82779.4
-22.490	82770.4
-22.485	82779.4
-22.480	82786.4
-22.475	82789.4
-22.470	82784.4
-22.465	82785.4
-22.460	82776.4
-22.455	82749.4
-22.450	82762.4
-22.445	82783.4
-22.440	82790.4
-22.435	82781.4
-22.430	82777.4
-22.425	82779.4
-22.420	82786.4
-22.415	82791.4
-22.410	82794.4
-22.405	82793.4
-22.400	82794.4
-22.395	82785.4
-22.390	82757.4
-22.385	82770.4
-22.380	82791.4
-22.375	82796.4
-22.370	82795.4
-22.365	82775.4
-22.360	82782.4
-22.355	82774.4
-22.350	82788.4
-22.345	82783.4
-22.340	82790.4
-22.335	82787.4
-22.330	82790.4
-22.325	82763.4
-22.320	82754.4
-22.315	82772.4
-22.310	82788.4
-22.305	82790.4
-22.300	82788.4
-22.295	82789.4
-22.290	82796.4
-22.285	82787.4
-22.280	82797.4
-22.275	82803.4
-22.270	82797.4
-22.265	82796.4
-22.260	82779.4
-22.255	82760.4
-22.250	82770.4
-22.245	82792.4
-22.240	82784.4
-22.235	82774.4
-22.230	82784.4
-22.225	82779.4
-22.220	82784.4
-22.215	82784.4
-22.210	82783.4
-22.205	82791.4
-22.200	82797.4
-22.195	82782.4
-22.190	82757.4
-22.185	82761.4
-22.180	82782.4
-22.175	82786.4
-22.170	82795.4
-22.165	82784.4
-22.160	82785.4
-22.155	82786.4
-22.150	82791.4
-22.145	82788.4
-22.140	82796.4
-22.135	82797.4
-22.130	82792.4
-22.125	82760.4
-22.120	82766.4
-22.115	82775.4
-22.110	82792.4
-22.105	82780.4
-22.100	82772.4
-22.095	82770.4
-22.090	82777.4
-22.085	82777.4
-22.080	82783.4
-22.075	82781.4
-22.070	82787.4
-22.065	82785.4
-22.060	82770.4
-22.055	82754.4
-22.050	82763.4
-22.045	82783.4
-22.040	82776.4
-22.035	82788.4
-22.030	82780.4
-22.025	82773.4
-22.020	82789.4
-22.015	82786.4
-22.010	82795.4
-22.005	82791.4
-22.000	82789.4
-21.995	82785.4
-21.990	82755.4
-21.985	82755.4
-21.980	82782.4
-21.975	82782.4
-21.970	82779.4
-21.965	82771.4
-21.960	82772.4
-21.955	82767.4
-21.950	82774.4
-21.945	82778.4
-21.940	82777.4
-21.935	82780.4
-21.930	82782.4
-21.925	82749.4
-21.920	82749.4
-21.915	82759.4
-21.910	82785.4
-21.905	82774.4
-21.900	82775.4
-21.895	82771.4
-21.890	82775.4
-21.885	82772.4
-21.880	82793.4
-21.875	82787.4
-21.870	82793.4
-21.865	82783.4
-21.860	82759.4
-21.855	82746.4
-21.850	82766.4
-21.845	82783.4
-21.840	82782.4
-21.835	82770.4
-21.830	82773.4
-21.825	82765.4
-21.820	82765.4
-21.815	82766.4
-21.810	82768.4
-21.805	82773.4
-21.800	82774.4
-21.795	82771.4
-21.790	82741.4
-21.785	82737.4
-21.780	82755.4
-21.775	82767.4
-21.770	82773.4
-21.765	82776.4
-21.760	82770.4
-21.755	82771.4
-21.750	82780.4
-21.745	82779.4
-21.740	82786.4
-21.735	82775.4
-21.730	82782.4
-21.725	82744.4
-21.720	82749.4
-21.715	82766.4
-21.710	82776.4
-21.705	82770.4
-21.700	82766.4
-21.695	82757.4
-21.690	82765.4
-21.685	82761.4
-21.680	82769.4
-21.675	82759.4
-21.670	82773.4
-21.665	82764.4
-21.660	82759.4
-21.655	82725.4
-21.650	82746.4
-21.645	82767.4
-21.640	82773.4
-21.635	82766.4
-21.630	82769.4
-21.625	82761.4
-21.620	82765.4
-21.615	82775.4
-21.610	82774.4
-21.605	82776.4
-21.600	82773.4
-21.595	82760.4
-21.590	82734.4
-21.585	82738.4
-21.580	82762.4
-21.575	82759.4
-21.570	82765.4
-21.565	82757.4
-21.560	82763.4
-21.555	82760.4
-21.550	82767.4
-21.545	82756.4
-21.540	82760.4
-21.535	82767.4
-21.530	82773.4
-21.525	82738.4
-21.520	82727.4
-21.515	82737.4
-21.510	82763.4
-21.505	82759.4
-21.500	82760.4
-21.495	82768.4
-21.490	82763.4
-21.485	82764.4
-21.480	82771.4
-21.475	82770.4
-21.470	82769.4
-21.465	82764.4
-21.460	82748.4
-21.455	82731.4
-21.450	82749.4
-21.445	82762.4
-21.440	82766.4
-21.435	82753.4
-21.430	82753.4
-21.425	82755.4
-21.420	82751.4
-21.415	82751.4
-21.410	82767.4
-21.405	82759.4
-21.400	82764.4
-21.395	82748.4
-21.390	82724.4
-21.385	82730.4
-21.380	82759.4
-21.375	82756.4
-21.370	82763.4
-21.365	82753.4
-21.360	82762.4
-21.355	82751.4
-21.350	82761.4
-21.345	82759.4
-21.340	82761.4
-21.335	82749.4
-21.330	82752.4
-21.325	82717.4
-21.320	82707.5
-21.315	82712.4
-21.310	82702.5
-21.305	82671.5
-21.300	82614.6
-21.295	82533.7
-21.290	82440.8
-21.285	82299.9
-21.280	82124.1
-21.275	81855.4
-21.270	81523.8
-21.265	81109.2
-21.260	80609.8
-21.255	80131.3
-21.250	79714.9
-21.245	79295.4
-21.240	78830.1
-21.235	78265.8
-21.230	77644.6
-21.225	77019.5
-21.220	76420.3
-21.215	75759.1
-21.210	74962.0
-21.205	73970.1
-21.200	73187.0
-21.195	72928.5
-21.190	72561.1
-21.185	72208.3
-21.180	72828.8
-21.175	73454.2
-21.170	73301.2
-21.165	73730.7
-21.160	74817.9
-21.155	75870.0
-21.150	76533.5
-21.145	76371.6
-21.140	75034.4
-21.135	73821.1
-21.130	74459.6
-21.125	75451.8
-21.120	75232.8
-21.115	75350.7
-21.110	76050.1
-21.105	74471.2
-21.100	73714.6
-21.095	75927.0
-21.090	77231.0
-21.085	77699.7
-21.080	77847.5
-21.075	77600.6
-21.070	76925.1
-21.065	76003.7
-21.060	75956.7
-21.055	76613.2
-21.050	76987.9
-21.045	77400.6
-21.040	78060.0
-21.035	78297.8
-21.030	77763.1
-21.025	76369.1
-21.020	75341.8
-21.015	76249.1
-21.010	77684.1
-21.005	76861.7
-21.000	74484.4
-20.995	73785.9
-20.990	75873.3
-20.985	77832.8
-20.980	78238.5
-20.975	77834.8
-20.970	77469.0
-20.965	77607.9
-20.960	77626.9
-20.955	77358.0
-20.950	77570.9
-20.945	78207.4
-20.940	78631.0
-20.935	78642.0
-20.930	78447.1
-20.925	78284.2
-20.920	78232.2
-20.915	78238.2
-20.910	78248.2
-20.905	78238.2
-20.900	78471.0
-20.895	78884.7
-20.890	79138.5
-20.885	79140.5
-20.880	78986.6
-20.875	78626.8
-20.870	78175.1
-20.865	78011.3
-20.860	78149.1
-20.855	78373.0
-20.850	78595.8
-20.845	78670.7
-20.840	78631.7
-20.835	78696.7
-20.830	78855.5
-20.825	78973.4
-20.820	78986.4
-20.815	78904.5
-20.810	78848.5
-20.805	78786.5
-20.800	78777.5
-20.795	78839.4
-20.790	78901.4
-20.785	78982.3
-20.780	79060.2
-20.775	79033.3
-20.770	78987.3
-20.765	78916.3
-20.760	78823.4
-20.755	78761.4
-20.750	78704.4
-20.745	78574.5
-20.740	78479.6
-20.735	78504.6
-20.730	78585.5
-20.725	78606.5
-20.720	78698.4
-20.715	78776.3
-20.710	78861.3
-20.705	78903.2
-20.700	78882.2
-20.695	78838.2
-20.690	78831.2
-20.685	78866.2
-20.680	78925.1
-20.675	78999.1
-20.670	79032.0
-20.665	79052.0
-20.660	79088.0
-20.655	79155.9
-20.650	79238.9
-20.645	79341.8
-20.640	79368.8
-20.635	79416.7
-20.630	79476.7
-20.625	79491.7
-20.620	79517.6
-20.615	79536.6
-20.610	79565.6
-20.605	79598.5
-20.600	79624.5
-20.595	79628.5
-20.590	79631.5
-20.585	79621.5
-20.580	79626.5
-20.575	79602.5
-20.570	79569.5
-20.565	79549.5
-20.560	79545.5
-20.555	79522.5
-20.550	79514.5
-20.545	79503.5
-20.540	79553.5
-20.535	79589.4
-20.530	79605.4
-20.525	79613.4
-20.520	79639.4
-20.515	79642.4
-20.510	79642.4
-20.505	79652.4
-20.500	79670.4
-20.495	79652.4
-20.490	79615.4
-20.485	79576.4
-20.480	79577.4
-20.475	79614.4
-20.470	79642.3
-20.465	79706.3
-20.460	79761.2
-20.455	79794.2
-20.450	79880.1
-20.445	79936.1
-20.440	79940.1
-20.435	80005.0
-20.430	80036.0
-20.425	80058.0
-20.420	80077.0
-20.415	80091.0
-20.410	80100.9
-20.405	80109.9
-20.400	80121.9
-20.395	80098.9
-20.390	80088.9
-20.385	80096.9
-20.380	80138.9
-20.375	80122.9
-20.370	80100.9
-20.365	80106.9
-20.360	80117.9
-20.355	80111.9
-20.350	80114.9
-20.345	80102.9
-20.340	80088.9
-20.335	80071.9
-20.330	80064.9
-20.325	80043.9
-20.320	80062.9
-20.315	80070.9
-20.310	80072.9
-20.305	80043.9
-20.300	80015.9
-20.295	80006.9
-20.290	80033.9
-20.285	80035.9
-20.280	80029.9
-20.275	80002.9
-20.270	79995.9
-20.265	79984.9
-20.260	79935.9
-20.255	79919.9
-20.250	79907.9
-20.245	79910.9
-20.240	79912.9
-20.235	79921.9
-20.230	79935.9
-20.225	79955.9
-20.220	79992.9
-20.215	80028.8
-20.210	80045.8
-20.205	80089.8
-20.200	80134.7
-20.195	80152.7
-20.190	80163.7
-20.185	80193.7
-20.180	80250.6
-20.175	80261.6
-20.170	80296.6
-20.165	80303.6
-20.160	80324.6
-20.155	80343.6
-20.150	80368.5
-20.145	80366.5
-20.140	80378.5
-20.135	80369.5
-20.130	80363.5
-20.125	80306.6
-20.120	80284.6
-20.115	80302.6
-20.110	80314.5
-20.105	80293.6
-20.100	80283.6
-20.095	80259.6
-20.090	80269.6
-20.085	80271.6
-20.080	80302.5
-20.075	80296.5
-20.070	80283.6
-20.065	80291.5
-20.060	80295.5
-20.055	80297.5
-20.050	80325.5
-20.045	80358.5
-20.040	80367.5
