PK2650 Deflection Data
Z Position (mm)	100.000	W Position (deg)	0.00
Preform ID	Diameter (mm)	Time Stamp	Start Time	Operator	Serial Number
Test 1	25	03-Nov-22 18:05:01	03-Nov-22 18:05:40	[no user]	266007708
Radius (mm)	Deflection
-26.370	0.000024
-26.365	0.000010
-26.360	0.000004
-26.355	-0.000011
-26.350	-0.000011
-26.345	-0.000011
-26.340	0.000010
-26.335	0.000004
-26.330	-0.000011
-26.325	-0.000011
-26.320	-0.000011
-26.315	0.000016
-26.310	0.000016
-26.305	0.000003
-26.300	0.000010
-26.295	0.000023
-26.290	0.000010
-26.285	0.000023
-26.280	0.000030
-26.275	-0.000024
-26.270	-0.000010
-26.265	0.000010
-26.260	0.000002
-26.255	0.000002
-26.250	0.000009
-26.245	0.000009
-26.240	0.000003
-26.235	0.000036
-26.230	0.000030
-26.225	0.000043
-26.220	-0.000004
-26.215	-0.000025
-26.210	-0.000011
-26.205	0.000016
-26.200	-0.000018
-26.195	0.000015
-26.190	0.000002
-26.185	0.000002
-26.180	0.000022
-26.175	0.000002
-26.170	-0.000005
-26.165	0.000002
-26.160	0.000015
-26.155	-0.000005
-26.150	0.000008
-26.145	0.000002
-26.140	0.000002
-26.135	0.000009
-26.130	0.000008
-26.125	0.000015
-26.120	-0.000012
-26.115	0.000022
-26.110	0.000008
-26.105	0.000029
-26.100	0.000015
-26.095	0.000022
-26.090	0.000015
-26.085	0.000015
-26.080	0.000008
-26.075	0.000015
-26.070	0.000022
-26.065	0.000001
-26.060	0.000028
-26.055	-0.000006
-26.050	0.000014
-26.045	0.000028
-26.040	0.000035
-26.035	0.000035
-26.030	0.000008
-26.025	0.000028
-26.020	0.000021
-26.015	0.000028
-26.010	-0.000006
-26.005	0.000028
-26.000	0.000001
-25.995	0.000001
-25.990	0.000001
-25.985	0.000001
-25.980	0.000014
-25.975	0.000014
-25.970	0.000008
-25.965	0.000007
-25.960	0.000014
-25.955	0.000027
-25.950	0.000041
-25.945	-0.000006
-25.940	-0.000013
-25.935	0.000008
-25.930	0.000021
-25.925	-0.000013
-25.920	0.000014
-25.915	0.000007
-25.910	0.000000
-25.905	0.000007
-25.900	0.000014
-25.895	0.000020
-25.890	0.000061
-25.885	0.000000
-25.880	0.000020
-25.875	0.000014
-25.870	0.000021
-25.865	-0.000013
-25.860	-0.000020
-25.855	0.000000
-25.850	0.000054
-25.845	-0.000007
-25.840	0.000000
-25.835	0.000000
-25.830	0.000020
-25.825	0.000020
-25.820	0.000013
-25.815	0.000027
-25.810	0.000027
-25.805	-0.000007
-25.800	0.000000
-25.795	0.000027
-25.790	-0.000014
-25.785	-0.000007
-25.780	-0.000001
-25.775	-0.000014
-25.770	0.000040
-25.765	0.000020
-25.760	0.000040
-25.755	0.000006
-25.750	0.000020
-25.745	0.000007
-25.740	0.000007
-25.735	-0.000007
-25.730	-0.000021
-25.725	-0.000014
-25.720	0.000033
-25.715	-0.000001
-25.710	0.000006
-25.705	0.000027
-25.700	-0.000001
-25.695	0.000047
-25.690	0.000013
-25.685	0.000033
-25.680	-0.000001
-25.675	0.000006
-25.670	-0.000007
-25.665	0.000020
-25.660	0.000006
-25.655	-0.000008
-25.650	0.000012
-25.645	-0.000008
-25.640	0.000033
-25.635	0.000006
-25.630	-0.000001
-25.625	0.000026
-25.620	0.000033
-25.615	0.000060
-25.610	0.000006
-25.605	0.000006
-25.600	0.000020
-25.595	-0.000001
-25.590	0.000033
-25.585	0.000019
-25.580	0.000006
-25.575	0.000012
-25.570	0.000019
-25.565	0.000012
-25.560	0.000026
-25.555	0.000012
-25.550	0.000026
-25.545	0.000026
-25.540	0.000006
-25.535	0.000006
-25.530	-0.000015
-25.525	0.000019
-25.520	0.000012
-25.515	-0.000009
-25.510	0.000019
-25.505	0.000032
-25.500	0.000025
-25.495	0.000012
-25.490	-0.000015
-25.485	0.000012
-25.480	0.000019
-25.475	0.000033
-25.470	0.000013
-25.465	0.000019
-25.460	0.000032
-25.455	-0.000002
-25.450	0.000052
-25.445	0.000012
-25.440	0.000032
-25.435	0.000012
-25.430	-0.000002
-25.425	0.000046
-25.420	0.000039
-25.415	0.000018
-25.410	0.000012
-25.405	-0.000001
-25.400	-0.000015
-25.395	0.000018
-25.390	0.000018
-25.385	0.000025
-25.380	0.000038
-25.375	0.000039
-25.370	0.000018
-25.365	0.000052
-25.360	0.000032
-25.355	0.000032
-25.350	0.000025
-25.345	0.000012
-25.340	0.000019
-25.335	0.000019
-25.330	-0.000016
-25.325	-0.000023
-25.320	0.000025
-25.315	-0.000002
-25.310	0.000011
-25.305	0.000045
-25.300	0.000045
-25.295	0.000052
-25.290	0.000011
-25.285	0.000011
-25.280	0.000004
-25.275	0.000012
-25.270	0.000012
-25.265	0.000011
-25.260	-0.000009
-25.255	0.000011
-25.250	0.000038
-25.245	0.000011
-25.240	0.000004
-25.235	-0.000016
-25.230	0.000024
-25.225	0.000025
-25.220	0.000024
-25.215	0.000004
-25.210	0.000045
-25.205	0.000012
-25.200	0.000045
-25.195	0.000031
-25.190	0.000011
-25.185	0.000004
-25.180	0.000018
-25.175	-0.000003
-25.170	0.000038
-25.165	0.000031
-25.160	0.000065
-25.155	0.000024
-25.150	0.000024
-25.145	0.000018
-25.140	-0.000016
-25.135	0.000018
-25.130	0.000017
-25.125	0.000004
-25.120	0.000024
-25.115	0.000031
-25.110	0.000038
-25.105	0.000044
-25.100	-0.000010
-25.095	0.000024
-25.090	0.000038
-25.085	0.000024
-25.080	0.000004
-25.075	0.000011
-25.070	0.000025
-25.065	0.000010
-25.060	-0.000010
-25.055	0.000004
-25.050	0.000010
-25.045	0.000044
-25.040	0.000024
-25.035	0.000058
-25.030	0.000004
-25.025	0.000038
-25.020	0.000010
-25.015	0.000037
-25.010	0.000004
-25.005	-0.000009
-25.000	0.000011
-24.995	-0.000017
-24.990	0.000024
-24.985	-0.000010
-24.980	0.000017
-24.975	0.000003
-24.970	0.000010
-24.965	0.000010
-24.960	0.000030
-24.955	0.000024
-24.950	0.000010
-24.945	0.000011
-24.940	0.000011
-24.935	0.000017
-24.930	-0.000004
-24.925	0.000010
-24.920	0.000003
-24.915	0.000003
-24.910	0.000017
-24.905	0.000003
-24.900	0.000051
-24.895	0.000030
-24.890	0.000003
-24.885	0.000017
-24.880	0.000010
-24.875	0.000024
-24.870	-0.000003
-24.865	-0.000003
-24.860	0.000003
-24.855	-0.000011
-24.850	-0.000004
-24.845	0.000010
-24.840	0.000017
-24.835	0.000010
-24.830	0.000003
-24.825	0.000010
-24.820	0.000037
-24.815	0.000023
-24.810	0.000004
-24.805	0.000011
-24.800	0.000010
-24.795	0.000030
-24.790	0.000017
-24.785	0.000030
-24.780	0.000010
-24.775	0.000044
-24.770	0.000037
-24.765	0.000051
-24.760	0.000030
-24.755	-0.000004
-24.750	0.000016
-24.745	0.000010
-24.740	0.000051
-24.735	0.000017
-24.730	0.000016
-24.725	0.000037
-24.720	0.000043
-24.715	-0.000004
-24.710	0.000057
-24.705	0.000023
-24.700	0.000030
-24.695	0.000064
-24.690	0.000016
-24.685	0.000023
-24.680	0.000017
-24.675	0.000031
-24.670	-0.000024
-24.665	0.000010
-24.660	0.000030
-24.655	0.000009
-24.650	-0.000004
-24.645	0.000030
-24.640	0.000010
-24.635	0.000030
-24.630	0.000010
-24.625	-0.000004
-24.620	0.000003
-24.615	0.000016
-24.610	0.000010
-24.605	-0.000003
-24.600	0.000010
-24.595	0.000043
-24.590	0.000002
-24.585	0.000009
-24.580	0.000036
-24.575	0.000036
-24.570	0.000057
-24.565	0.000023
-24.560	0.000016
-24.555	0.000036
-24.550	0.000036
-24.545	0.000016
-24.540	0.000024
-24.535	0.000010
-24.530	0.000009
-24.525	-0.000004
-24.520	0.000009
-24.515	0.000009
-24.510	0.000009
-24.505	0.000036
-24.500	0.000023
-24.495	0.000043
-24.490	0.000084
-24.485	0.000043
-24.480	0.000009
-24.475	0.000009
-24.470	0.000023
-24.465	0.000002
-24.460	0.000002
-24.455	0.000049
-24.450	0.000002
-24.445	-0.000005
-24.440	0.000016
-24.435	0.000029
-24.430	0.000016
-24.425	0.000029
-24.420	0.000016
-24.415	0.000023
-24.410	-0.000004
-24.405	0.000023
-24.400	0.000023
-24.395	0.000022
-24.390	0.000029
-24.385	0.000022
-24.380	0.000002
-24.375	0.000043
-24.370	0.000043
-24.365	0.000009
-24.360	0.000036
-24.355	0.000036
-24.350	0.000049
-24.345	0.000056
-24.340	0.000023
-24.335	0.000029
-24.330	0.000015
-24.325	-0.000012
-24.320	-0.000005
-24.315	0.000022
-24.310	0.000022
-24.305	0.000015
-24.300	0.000036
-24.295	0.000022
-24.290	0.000029
-24.285	0.000036
-24.280	0.000036
-24.275	0.000016
-24.270	0.000023
-24.265	0.000049
-24.260	0.000042
-24.255	0.000015
-24.250	0.000062
-24.245	0.000035
-24.240	0.000008
-24.235	0.000029
-24.230	0.000028
-24.225	0.000056
-24.220	0.000062
-24.215	0.000049
-24.210	0.000029
-24.205	0.000022
-24.200	0.000001
-24.195	0.000015
-24.190	0.000015
-24.185	0.000028
-24.180	0.000048
-24.175	0.000048
-24.170	0.000048
-24.165	0.000055
-24.160	0.000035
-24.155	0.000049
-24.150	0.000021
-24.145	0.000008
-24.140	0.000049
-24.135	0.000015
-24.130	0.000008
-24.125	0.000008
-24.120	0.000028
-24.115	0.000008
-24.110	0.000028
-24.105	0.000062
-24.100	0.000021
-24.095	0.000028
-24.090	0.000021
-24.085	0.000055
-24.080	0.000035
-24.075	0.000028
-24.070	0.000022
-24.065	0.000021
-24.060	-0.000013
-24.055	0.000007
-24.050	0.000014
-24.045	0.000021
-24.040	0.000028
-24.035	0.000028
-24.030	0.000034
-24.025	0.000027
-24.020	0.000055
-24.015	0.000007
-24.010	0.000035
-24.005	0.000021
-24.000	0.000021
-23.995	0.000007
-23.990	0.000014
-23.985	0.000000
-23.980	0.000007
-23.975	0.000021
-23.970	0.000034
-23.965	0.000021
-23.960	0.000034
-23.955	0.000027
-23.950	0.000020
-23.945	0.000021
-23.940	0.000034
-23.935	0.000021
-23.930	0.000013
-23.925	0.000020
-23.920	0.000006
-23.915	0.000006
-23.910	0.000013
-23.905	0.000013
-23.900	0.000027
-23.895	0.000034
-23.890	0.000027
-23.885	-0.000000
-23.880	0.000027
-23.875	0.000020
-23.870	0.000014
-23.865	-0.000007
-23.860	0.000033
-23.855	0.000020
-23.850	0.000027
-23.845	0.000020
-23.840	0.000033
-23.835	0.000033
-23.830	0.000027
-23.825	0.000026
-23.820	0.000013
-23.815	0.000033
-23.810	0.000027
-23.805	0.000027
-23.800	0.000019
-23.795	0.000006
-23.790	0.000019
-23.785	0.000013
-23.780	0.000040
-23.775	0.000047
-23.770	0.000040
-23.765	0.000019
-23.760	0.000053
-23.755	0.000046
-23.750	0.000053
-23.745	0.000054
-23.740	0.000027
-23.735	-0.000028
-23.730	0.000026
-23.725	-0.000008
-23.720	0.000012
-23.715	0.000012
-23.710	0.000019
-23.705	0.000053
-23.700	0.000046
-23.695	0.000012
-23.690	0.000019
-23.685	0.000019
-23.680	0.000005
-23.675	0.000006
-23.670	-0.000008
-23.665	0.000005
-23.660	-0.000015
-23.655	0.000005
-23.650	0.000019
-23.645	-0.000002
-23.640	0.000005
-23.635	0.000026
-23.630	0.000012
-23.625	0.000032
-23.620	0.000019
-23.615	0.000012
-23.610	0.000006
-23.605	0.000006
-23.600	-0.000008
-23.595	-0.000042
-23.590	-0.000008
-23.585	0.000005
-23.580	0.000025
-23.575	-0.000008
-23.570	0.000025
-23.565	0.000025
-23.560	-0.000002
-23.555	0.000025
-23.550	0.000018
-23.545	-0.000002
-23.540	-0.000002
-23.535	-0.000029
-23.530	-0.000036
-23.525	-0.000002
-23.520	-0.000016
-23.515	-0.000016
-23.510	-0.000009
-23.505	-0.000023
-23.500	0.000011
-23.495	-0.000023
-23.490	-0.000036
-23.485	-0.000016
-23.480	-0.000050
-23.475	-0.000029
-23.470	-0.000009
-23.465	-0.000030
-23.460	-0.000010
-23.455	-0.000016
-23.450	-0.000023
-23.445	-0.000003
-23.440	0.000031
-23.435	-0.000023
-23.430	0.000024
-23.425	0.000017
-23.420	-0.000003
-23.415	0.000011
-23.410	-0.000016
-23.405	-0.000002
-23.400	-0.000030
-23.395	-0.000037
-23.390	-0.000010
-23.385	0.000010
-23.380	0.000017
-23.375	0.000024
-23.370	-0.000017
-23.365	-0.000024
-23.360	0.000010
-23.355	0.000003
-23.350	0.000003
-23.345	0.000011
-23.340	0.000004
-23.335	-0.000017
-23.330	-0.000017
-23.325	-0.000024
-23.320	-0.000017
-23.315	-0.000010
-23.310	-0.000031
-23.305	-0.000017
-23.300	-0.000010
-23.295	0.000010
-23.290	-0.000010
-23.285	-0.000004
-23.280	-0.000004
-23.275	0.000003
-23.270	0.000010
-23.265	-0.000004
-23.260	-0.000024
-23.255	-0.000018
-23.250	-0.000004
-23.245	0.000009
-23.240	-0.000011
-23.235	-0.000018
-23.230	0.000023
-23.225	0.000010
-23.220	0.000016
-23.215	-0.000024
-23.210	0.000010
-23.205	-0.000017
-23.200	-0.000024
-23.195	-0.000038
-23.190	-0.000011
-23.185	-0.000004
-23.180	-0.000025
-23.175	-0.000011
-23.170	-0.000018
-23.165	0.000002
-23.160	0.000009
-23.155	0.000002
-23.150	-0.000039
-23.145	-0.000018
-23.140	-0.000024
-23.135	-0.000018
-23.130	-0.000032
-23.125	-0.000005
-23.120	-0.000005
-23.115	-0.000012
-23.110	0.000036
-23.105	-0.000012
-23.100	-0.000005
-23.095	-0.000012
-23.090	0.000009
-23.085	0.000002
-23.080	-0.000005
-23.075	-0.000031
-23.070	-0.000018
-23.065	-0.000005
-23.060	-0.000026
-23.055	-0.000032
-23.050	-0.000032
-23.045	-0.000025
-23.040	0.000015
-23.035	-0.000005
-23.030	0.000022
-23.025	0.000009
-23.020	-0.000005
-23.015	-0.000032
-23.010	0.000002
-23.005	-0.000018
-23.000	-0.000005
-22.995	-0.000019
-22.990	-0.000026
-22.985	-0.000026
-22.980	0.000008
-22.975	0.000008
-22.970	0.000022
-22.965	0.000029
-22.960	0.000001
-22.955	0.000001
-22.950	-0.000012
-22.945	0.000015
-22.940	-0.000046
-22.935	-0.000032
-22.930	-0.000046
-22.925	-0.000033
-22.920	-0.000012
-22.915	0.000022
-22.910	-0.000005
-22.905	-0.000059
-22.900	0.000022
-22.895	0.000008
-22.890	0.000008
-22.885	-0.000012
-22.880	-0.000019
-22.875	-0.000012
-22.870	0.000015
-22.865	-0.000006
-22.860	-0.000040
-22.855	-0.000033
-22.850	-0.000006
-22.845	-0.000013
-22.840	0.000001
-22.835	0.000001
-22.830	0.000008
-22.825	0.000001
-22.820	-0.000026
-22.815	0.000001
-22.810	-0.000039
-22.805	-0.000039
-22.800	-0.000033
-22.795	-0.000013
-22.790	0.000001
-22.785	-0.000013
-22.780	-0.000013
-22.775	-0.000047
-22.770	0.000007
-22.765	0.000008
-22.760	-0.000026
-22.755	0.000007
-22.750	-0.000020
-22.745	-0.000020
-22.740	-0.000039
-22.735	-0.000019
-22.730	-0.000006
-22.725	0.000007
-22.720	-0.000040
-22.715	-0.000034
-22.710	0.000021
-22.705	0.000000
-22.700	-0.000013
-22.695	-0.000006
-22.690	0.000027
-22.685	0.000014
-22.680	0.000007
-22.675	-0.000006
-22.670	0.000001
-22.665	-0.000047
-22.660	-0.000027
-22.655	-0.000027
-22.650	-0.000027
-22.645	-0.000020
-22.640	0.000014
-22.635	0.000007
-22.630	-0.000007
-22.625	-0.000013
-22.620	-0.000014
-22.615	-0.000014
-22.610	-0.000027
-22.605	-0.000027
-22.600	-0.000034
-22.595	-0.000027
-22.590	-0.000007
-22.585	-0.000007
-22.580	-0.000007
-22.575	-0.000014
-22.570	0.000013
-22.565	0.000006
-22.560	-0.000007
-22.555	0.000034
-22.550	0.000006
-22.545	-0.000006
-22.540	-0.000027
-22.535	-0.000027
-22.530	-0.000014
-22.525	-0.000007
-22.520	-0.000041
-22.515	-0.000014
-22.510	-0.000021
-22.505	-0.000014
-22.500	-0.000014
-22.495	-0.000021
-22.490	-0.000028
-22.485	-0.000008
-22.480	-0.000021
-22.475	-0.000007
-22.470	-0.000000
-22.465	-0.000014
-22.460	-0.000041
-22.455	0.000006
-22.450	-0.000055
-22.445	-0.000014
-22.440	-0.000035
-22.435	-0.000008
-22.430	-0.000001
-22.425	-0.000008
-22.420	-0.000008
-22.415	-0.000001
-22.410	-0.000014
-22.405	-0.000028
-22.400	-0.000015
-22.395	-0.000042
-22.390	-0.000021
-22.385	-0.000035
-22.380	-0.000028
-22.375	-0.000048
-22.370	-0.000008
-22.365	0.000033
-22.360	-0.000015
-22.355	-0.000015
-22.350	-0.000001
-22.345	-0.000008
-22.340	-0.000001
-22.335	-0.000042
-22.330	-0.000035
-22.325	-0.000056
-22.320	-0.000035
-22.315	-0.000022
-22.310	-0.000015
-22.305	-0.000008
-22.300	-0.000028
-22.295	-0.000015
-22.290	-0.000008
-22.285	-0.000008
-22.280	-0.000021
-22.275	-0.000041
-22.270	-0.000001
-22.265	-0.000035
-22.260	-0.000022
-22.255	-0.000015
-22.250	-0.000029
-22.245	-0.000029
-22.240	-0.000049
-22.235	-0.000008
-22.230	-0.000008
-22.225	0.000005
-22.220	-0.000015
-22.215	0.000012
-22.210	-0.000028
-22.205	-0.000035
-22.200	-0.000049
-22.195	-0.000029
-22.190	-0.000036
-22.185	-0.000022
-22.180	-0.000009
-22.175	-0.000022
-22.170	-0.000029
-22.165	-0.000029
-22.160	-0.000009
-22.155	-0.000016
-22.150	-0.000036
-22.145	-0.000028
-22.140	-0.000042
-22.135	-0.000042
-22.130	-0.000043
-22.125	-0.000015
-22.120	-0.000009
-22.115	-0.000002
-22.110	-0.000036
-22.105	-0.000015
-22.100	-0.000002
-22.095	-0.000015
-22.090	-0.000029
-22.085	-0.000016
-22.080	-0.000036
-22.075	-0.000008
-22.070	-0.000043
-22.065	-0.000023
-22.060	-0.000016
-22.055	-0.000036
-22.050	-0.000002
-22.045	-0.000029
-22.040	-0.000009
-22.035	-0.000056
-22.030	-0.000002
-22.025	-0.000016
-22.020	0.000004
-22.015	-0.000029
-22.010	-0.000009
-22.005	-0.000015
-22.000	-0.000036
-21.995	-0.000016
-21.990	-0.000029
-21.985	-0.000043
-21.980	-0.000002
-21.975	-0.000009
-21.970	-0.000009
-21.965	0.000004
-21.960	0.000018
-21.955	0.000011
-21.950	-0.000009
-21.945	-0.000029
-21.940	-0.000050
-21.935	-0.000029
-21.930	-0.000016
-21.925	-0.000030
-21.920	-0.000037
-21.915	-0.000016
-21.910	-0.000009
-21.905	-0.000009
-21.900	0.000018
-21.895	-0.000050
-21.890	-0.000009
-21.885	-0.000003
-21.880	-0.000023
-21.875	-0.000036
-21.870	-0.000002
-21.865	-0.000016
-21.860	-0.000044
-21.855	-0.000030
-21.850	-0.000050
-21.845	0.000004
-21.840	-0.000016
-21.835	-0.000009
-21.830	-0.000010
-21.825	-0.000037
-21.820	-0.000030
-21.815	-0.000037
-21.810	-0.000016
-21.805	0.000011
-21.800	-0.000037
-21.795	-0.000010
-21.790	-0.000044
-21.785	-0.000044
-21.780	-0.000030
-21.775	-0.000017
-21.770	-0.000003
-21.765	-0.000010
-21.760	-0.000024
-21.755	-0.000044
-21.750	-0.000030
-21.745	0.000004
-21.740	-0.000030
-21.735	0.000011
-21.730	-0.000044
-21.725	-0.000030
-21.720	-0.000010
-21.715	-0.000003
-21.710	-0.000017
-21.705	-0.000023
-21.700	-0.000017
-21.695	-0.000037
-21.690	-0.000037
-21.685	-0.000003
-21.680	-0.000003
-21.675	-0.000016
-21.670	-0.000037
-21.665	-0.000010
-21.660	-0.000017
-21.655	-0.000051
-21.650	-0.000017
-21.645	0.000003
-21.640	-0.000010
-21.635	-0.000037
-21.630	-0.000024
-21.625	0.000010
-21.620	-0.000031
-21.615	-0.000010
-21.610	-0.000023
-21.605	-0.000030
-21.600	-0.000031
-21.595	-0.000017
-21.590	-0.000011
-21.585	-0.000010
-21.580	0.000010
-21.575	-0.000031
-21.570	0.000044
-21.565	-0.000017
-21.560	0.000003
-21.555	-0.000031
-21.550	0.000003
-21.545	-0.000010
-21.540	-0.000010
-21.535	0.000003
-21.530	-0.000024
-21.525	-0.000031
-21.520	-0.000011
-21.515	-0.000011
-21.510	0.000010
-21.505	0.000003
-21.500	0.000003
-21.495	0.000016
-21.490	0.000016
-21.485	0.000003
-21.480	0.000003
-21.475	0.000010
-21.470	0.000003
-21.465	0.000043
-21.460	0.000044
-21.455	0.000078
-21.450	0.000085
-21.445	0.000160
-21.440	0.000248
-21.435	0.000426
-21.430	0.000672
-21.425	0.001042
-21.420	0.001509
-21.415	0.002137
-21.410	0.002991
-21.405	0.004100
-21.400	0.005408
-21.395	0.007019
-21.390	0.008862
-21.385	0.010993
-21.380	0.013482
-21.375	0.016317
-21.370	0.019358
-21.365	0.022573
-21.360	0.026080
-21.355	0.029720
-21.350	0.033303
-21.345	0.036814
-21.340	0.040565
-21.335	0.044154
-21.330	0.047668
-21.325	0.050208
-21.320	0.050113
-21.315	0.049338
-21.310	0.048641
-21.305	0.046579
-21.300	0.045107
-21.295	0.044239
-21.290	0.043190
-21.285	0.042257
-21.280	0.041605
-21.275	0.040782
-21.270	0.039701
-21.265	0.038690
-21.260	0.037657
-21.255	0.036562
-21.250	0.036006
-21.245	0.035474
-21.240	0.034678
-21.235	0.034187
-21.230	0.033743
-21.225	0.033103
-21.220	0.032540
-21.215	0.032086
-21.210	0.031672
-21.205	0.031226
-21.200	0.030872
-21.195	0.030517
-21.190	0.030351
-21.185	0.030534
-21.180	0.029960
-21.175	0.028863
-21.170	0.028352
-21.165	0.028086
-21.160	0.027735
-21.155	0.027268
-21.150	0.027027
-21.145	0.026864
-21.140	0.026855
-21.135	0.027047
-21.130	0.026792
-21.125	0.026080
-21.120	0.025662
-21.115	0.025462
-21.110	0.025226
-21.105	0.025035
-21.100	0.024884
-21.095	0.024717
-21.090	0.024440
-21.085	0.024084
-21.080	0.023865
-21.075	0.023752
-21.070	0.023559
-21.065	0.023288
-21.060	0.022993
-21.055	0.022799
-21.050	0.022635
-21.045	0.022548
-21.040	0.022488
-21.035	0.022315
-21.030	0.022147
-21.025	0.021957
-21.020	0.021831
-21.015	0.021702
-21.010	0.021605
-21.005	0.021530
-21.000	0.021476
-20.995	0.021366
-20.990	0.021180
-20.985	0.020958
-20.980	0.020815
-20.975	0.020689
-20.970	0.020564
-20.965	0.020469
-20.960	0.020285
-20.955	0.020180
-20.950	0.020027
-20.945	0.019929
-20.940	0.019825
-20.935	0.019732
-20.930	0.019584
-20.925	0.019471
-20.920	0.019347
-20.915	0.019234
-20.910	0.019150
-20.905	0.019035
-20.900	0.018959
-20.895	0.018851
-20.890	0.018740
-20.885	0.018639
-20.880	0.018533
-20.875	0.018461
-20.870	0.018378
-20.865	0.018355
-20.860	0.018256
-20.855	0.018152
-20.850	0.018060
-20.845	0.017937
-20.840	0.017825
-20.835	0.017740
-20.830	0.017586
-20.825	0.017547
-20.820	0.017428
-20.815	0.017372
-20.810	0.017286
-20.805	0.017162
-20.800	0.017067
-20.795	0.017050
-20.790	0.016978
-20.785	0.016943
-20.780	0.016871
-20.775	0.016813
-20.770	0.016738
-20.765	0.016682
-20.760	0.016635
-20.755	0.016492
-20.750	0.016438
-20.745	0.016321
-20.740	0.016240
-20.735	0.016199
-20.730	0.016094
-20.725	0.016032
-20.720	0.015977
-20.715	0.015938
-20.710	0.015858
-20.705	0.015814
-20.700	0.015761
-20.695	0.015694
-20.690	0.015635
-20.685	0.015540
