PK2650 Deflection Data
Z Position (mm)	100.000	W Position (deg)	72.00
Preform ID	Diameter (mm)	Time Stamp	Start Time	Operator	Serial Number
Test 1	25	03-Nov-22 18:05:01	03-Nov-22 18:05:53	[no user]	266007708
Radius (mm)	Deflection
-26.345	0.000020
-26.340	0.000007
-26.335	-0.000007
-26.330	0.000020
-26.325	0.000027
-26.320	0.000007
-26.315	0.000027
-26.310	-0.000000
-26.305	0.000027
-26.300	0.000027
-26.295	0.000041
-26.290	0.000041
-26.285	0.000013
-26.280	0.000013
-26.275	0.000020
-26.270	0.000033
-26.265	0.000033
-26.260	-0.000021
-26.255	0.000013
-26.250	0.000013
-26.245	0.000013
-26.240	0.000006
-26.235	0.000033
-26.230	0.000054
-26.225	0.000053
-26.220	0.000019
-26.215	0.000033
-26.210	-0.000001
-26.205	0.000026
-26.200	-0.000001
-26.195	0.000040
-26.190	-0.000008
-26.185	-0.000001
-26.180	0.000006
-26.175	0.000005
-26.170	0.000026
-26.165	0.000026
-26.160	0.000040
-26.155	0.000039
-26.150	0.000039
-26.145	0.000012
-26.140	-0.000001
-26.135	0.000032
-26.130	0.000005
-26.125	0.000012
-26.120	0.000019
-26.115	-0.000001
-26.110	0.000005
-26.105	0.000019
-26.100	0.000019
-26.095	0.000012
-26.090	0.000012
-26.085	0.000046
-26.080	0.000025
-26.075	0.000005
-26.070	0.000012
-26.065	-0.000016
-26.060	-0.000029
-26.055	0.000012
-26.050	0.000005
-26.045	-0.000022
-26.040	0.000066
-26.035	0.000032
-26.030	0.000025
-26.025	0.000012
-26.020	0.000032
-26.015	0.000045
-26.010	0.000005
-26.005	0.000032
-26.000	0.000011
-25.995	0.000004
-25.990	0.000005
-25.985	0.000005
-25.980	0.000032
-25.975	0.000052
-25.970	0.000038
-25.965	0.000045
-25.960	0.000011
-25.955	0.000018
-25.950	0.000018
-25.945	-0.000003
-25.940	0.000024
-25.935	0.000017
-25.930	0.000004
-25.925	0.000017
-25.920	-0.000002
-25.915	0.000011
-25.910	0.000011
-25.905	0.000004
-25.900	0.000004
-25.895	0.000038
-25.890	0.000024
-25.885	0.000038
-25.880	0.000017
-25.875	0.000045
-25.870	-0.000023
-25.865	0.000024
-25.860	0.000038
-25.855	0.000011
-25.850	0.000038
-25.845	0.000024
-25.840	0.000038
-25.835	0.000010
-25.830	0.000038
-25.825	0.000051
-25.820	0.000031
-25.815	0.000065
-25.810	0.000017
-25.805	0.000003
-25.800	0.000003
-25.795	-0.000004
-25.790	0.000010
-25.785	0.000004
-25.780	0.000038
-25.775	0.000024
-25.770	-0.000003
-25.765	0.000024
-25.760	0.000037
-25.755	0.000017
-25.750	0.000017
-25.745	0.000044
-25.740	0.000031
-25.735	0.000010
-25.730	0.000003
-25.725	0.000010
-25.720	-0.000017
-25.715	-0.000010
-25.710	-0.000010
-25.705	0.000030
-25.700	0.000057
-25.695	0.000030
-25.690	0.000051
-25.685	-0.000017
-25.680	0.000030
-25.675	0.000016
-25.670	0.000030
-25.665	0.000023
-25.660	0.000023
-25.655	-0.000004
-25.650	0.000010
-25.645	0.000017
-25.640	0.000030
-25.635	0.000071
-25.630	0.000016
-25.625	0.000016
-25.620	0.000030
-25.615	0.000010
-25.610	0.000037
-25.605	0.000016
-25.600	0.000009
-25.595	-0.000011
-25.590	0.000023
-25.585	0.000037
-25.580	0.000030
-25.575	0.000016
-25.570	0.000030
-25.565	0.000050
-25.560	0.000009
-25.555	0.000023
-25.550	0.000023
-25.545	0.000016
-25.540	0.000029
-25.535	0.000022
-25.530	0.000022
-25.525	0.000016
-25.520	-0.000004
-25.515	0.000023
-25.510	0.000030
-25.505	0.000036
-25.500	0.000056
-25.495	0.000050
-25.490	0.000043
-25.485	0.000063
-25.480	0.000043
-25.475	0.000023
-25.470	0.000002
-25.465	0.000009
-25.460	0.000036
-25.455	-0.000004
-25.450	0.000050
-25.445	0.000036
-25.440	0.000022
-25.435	0.000022
-25.430	0.000002
-25.425	0.000043
-25.420	0.000050
-25.415	0.000008
-25.410	0.000042
-25.405	0.000042
-25.400	0.000042
-25.395	0.000002
-25.390	0.000029
-25.385	0.000029
-25.380	0.000009
-25.375	0.000015
-25.370	0.000049
-25.365	0.000029
-25.360	0.000015
-25.355	0.000056
-25.350	0.000002
-25.345	0.000022
-25.340	0.000008
-25.335	0.000029
-25.330	-0.000005
-25.325	0.000022
-25.320	0.000029
-25.315	0.000029
-25.310	0.000042
-25.305	0.000015
-25.300	0.000049
-25.295	0.000022
-25.290	0.000029
-25.285	0.000028
-25.280	0.000035
-25.275	0.000022
-25.270	0.000035
-25.265	0.000015
-25.260	0.000001
-25.255	-0.000012
-25.250	0.000036
-25.245	0.000001
-25.240	0.000035
-25.235	0.000028
-25.230	0.000049
-25.225	0.000056
-25.220	0.000028
-25.215	0.000015
-25.210	0.000008
-25.205	0.000055
-25.200	0.000008
-25.195	0.000015
-25.190	0.000008
-25.185	0.000049
-25.180	0.000042
-25.175	0.000015
-25.170	0.000035
-25.165	0.000021
-25.160	0.000021
-25.155	0.000014
-25.150	0.000008
-25.145	0.000035
-25.140	0.000008
-25.135	0.000014
-25.130	0.000048
-25.125	0.000028
-25.120	0.000049
-25.115	0.000028
-25.110	0.000035
-25.105	0.000035
-25.100	0.000048
-25.095	0.000021
-25.090	0.000041
-25.085	0.000041
-25.080	0.000021
-25.075	0.000028
-25.070	0.000021
-25.065	0.000028
-25.060	0.000014
-25.055	0.000042
-25.050	0.000015
-25.045	0.000035
-25.040	0.000028
-25.035	0.000034
-25.030	0.000028
-25.025	0.000041
-25.020	0.000048
-25.015	0.000028
-25.010	0.000034
-25.005	0.000014
-25.000	0.000034
-24.995	0.000014
-24.990	0.000021
-24.985	0.000028
-24.980	0.000035
-24.975	0.000041
-24.970	0.000055
-24.965	0.000055
-24.960	0.000028
-24.955	0.000041
-24.950	0.000048
-24.945	0.000000
-24.940	0.000007
-24.935	0.000014
-24.930	0.000021
-24.925	0.000034
-24.920	0.000028
-24.915	0.000041
-24.910	0.000027
-24.905	0.000041
-24.900	0.000034
-24.895	0.000041
-24.890	0.000054
-24.885	0.000034
-24.880	0.000034
-24.875	0.000048
-24.870	0.000027
-24.865	0.000013
-24.860	0.000014
-24.855	0.000014
-24.850	0.000041
-24.845	0.000027
-24.840	0.000027
-24.835	0.000014
-24.830	0.000041
-24.825	0.000020
-24.820	0.000014
-24.815	0.000034
-24.810	0.000068
-24.805	0.000041
-24.800	0.000041
-24.795	0.000007
-24.790	0.000048
-24.785	0.000041
-24.780	0.000028
-24.775	0.000027
-24.770	0.000047
-24.765	0.000020
-24.760	0.000054
-24.755	0.000020
-24.750	0.000047
-24.745	0.000020
-24.740	0.000047
-24.735	0.000034
-24.730	0.000041
-24.725	0.000027
-24.720	0.000007
-24.715	0.000021
-24.710	0.000061
-24.705	0.000034
-24.700	0.000020
-24.695	0.000075
-24.690	0.000054
-24.685	0.000027
-24.680	0.000020
-24.675	0.000020
-24.670	0.000054
-24.665	0.000020
-24.660	0.000006
-24.655	0.000027
-24.650	0.000027
-24.645	0.000047
-24.640	0.000061
-24.635	0.000033
-24.630	0.000054
-24.625	0.000047
-24.620	0.000040
-24.615	0.000020
-24.610	0.000040
-24.605	0.000019
-24.600	0.000020
-24.595	0.000026
-24.590	0.000020
-24.585	0.000054
-24.580	0.000027
-24.575	0.000040
-24.570	0.000033
-24.565	0.000020
-24.560	0.000027
-24.555	0.000020
-24.550	0.000040
-24.545	0.000033
-24.540	0.000020
-24.535	0.000040
-24.530	0.000040
-24.525	0.000013
-24.520	0.000020
-24.515	0.000027
-24.510	0.000026
-24.505	0.000047
-24.500	0.000047
-24.495	0.000067
-24.490	0.000040
-24.485	0.000053
-24.480	0.000019
-24.475	0.000026
-24.470	0.000053
-24.465	0.000033
-24.460	0.000046
-24.455	0.000033
-24.450	0.000026
-24.445	0.000033
-24.440	0.000033
-24.435	0.000067
-24.430	0.000074
-24.425	0.000033
-24.420	0.000040
-24.415	0.000040
-24.410	0.000047
-24.405	0.000033
-24.400	0.000040
-24.395	0.000012
-24.390	0.000019
-24.385	0.000047
-24.380	0.000054
-24.375	0.000033
-24.370	0.000060
-24.365	0.000080
-24.360	0.000019
-24.355	0.000053
-24.350	0.000066
-24.345	0.000060
-24.340	0.000039
-24.335	0.000053
-24.330	0.000046
-24.325	0.000032
-24.320	0.000019
-24.315	0.000046
-24.310	0.000005
-24.305	0.000046
-24.300	0.000060
-24.295	0.000053
-24.290	0.000073
-24.285	0.000046
-24.280	0.000039
-24.275	0.000039
-24.270	0.000039
-24.265	0.000052
-24.260	0.000032
-24.255	0.000032
-24.250	0.000012
-24.245	0.000032
-24.240	0.000059
-24.235	0.000032
-24.230	0.000046
-24.225	0.000018
-24.220	0.000052
-24.215	0.000066
-24.210	0.000025
-24.205	0.000045
-24.200	0.000005
-24.195	0.000032
-24.190	0.000025
-24.185	0.000019
-24.180	0.000039
-24.175	0.000032
-24.170	0.000052
-24.165	0.000045
-24.160	0.000073
-24.155	0.000052
-24.150	0.000052
-24.145	0.000045
-24.140	0.000011
-24.135	0.000018
-24.130	0.000045
-24.125	0.000038
-24.120	0.000032
-24.115	-0.000002
-24.110	0.000032
-24.105	0.000038
-24.100	0.000038
-24.095	0.000093
-24.090	0.000038
-24.085	0.000031
-24.080	0.000025
-24.075	0.000038
-24.070	0.000025
-24.065	0.000018
-24.060	0.000018
-24.055	0.000011
-24.050	0.000032
-24.045	-0.000003
-24.040	0.000058
-24.035	0.000045
-24.030	0.000038
-24.025	0.000024
-24.020	0.000018
-24.015	0.000052
-24.010	0.000052
-24.005	0.000024
-24.000	0.000045
-23.995	0.000010
-23.990	0.000031
-23.985	0.000011
-23.980	0.000025
-23.975	0.000011
-23.970	0.000051
-23.965	0.000038
-23.960	0.000045
-23.955	0.000024
-23.950	0.000058
-23.945	0.000044
-23.940	0.000031
-23.935	0.000017
-23.930	0.000044
-23.925	0.000017
-23.920	0.000004
-23.915	0.000010
-23.910	0.000064
-23.905	0.000030
-23.900	0.000017
-23.895	0.000017
-23.890	0.000051
-23.885	0.000017
-23.880	0.000030
-23.875	0.000017
-23.870	0.000037
-23.865	0.000010
-23.860	0.000023
-23.855	0.000017
-23.850	0.000024
-23.845	0.000030
-23.840	0.000030
-23.835	0.000037
-23.830	0.000030
-23.825	0.000023
-23.820	0.000043
-23.815	0.000044
-23.810	0.000064
-23.805	0.000023
-23.800	0.000009
-23.795	0.000043
-23.790	0.000023
-23.785	0.000023
-23.780	0.000037
-23.775	0.000036
-23.770	0.000030
-23.765	0.000030
-23.760	0.000050
-23.755	0.000050
-23.750	0.000037
-23.745	0.000036
-23.740	0.000009
-23.735	0.000036
-23.730	0.000016
-23.725	0.000023
-23.720	0.000023
-23.715	0.000023
-23.710	0.000036
-23.705	0.000029
-23.700	0.000057
-23.695	0.000050
-23.690	0.000036
-23.685	0.000036
-23.680	0.000016
-23.675	0.000016
-23.670	-0.000005
-23.665	0.000022
-23.660	0.000022
-23.655	0.000030
-23.650	0.000016
-23.645	-0.000012
-23.640	0.000049
-23.635	0.000022
-23.630	0.000022
-23.625	0.000022
-23.620	0.000050
-23.615	0.000002
-23.610	0.000029
-23.605	0.000002
-23.600	-0.000005
-23.595	-0.000026
-23.590	0.000016
-23.585	-0.000005
-23.580	-0.000025
-23.575	0.000035
-23.570	0.000008
-23.565	0.000008
-23.560	0.000015
-23.555	0.000008
-23.550	0.000022
-23.545	0.000008
-23.540	0.000008
-23.535	-0.000040
-23.530	0.000001
-23.525	-0.000012
-23.520	-0.000032
-23.515	-0.000012
-23.510	-0.000033
-23.505	0.000008
-23.500	0.000022
-23.495	-0.000006
-23.490	-0.000033
-23.485	-0.000019
-23.480	-0.000019
-23.475	-0.000019
-23.470	-0.000020
-23.465	-0.000020
-23.460	-0.000020
-23.455	-0.000006
-23.450	-0.000012
-23.445	-0.000013
-23.440	0.000001
-23.435	0.000001
-23.430	0.000007
-23.425	0.000035
-23.420	-0.000020
-23.415	0.000001
-23.410	-0.000013
-23.405	-0.000020
-23.400	-0.000020
-23.395	-0.000007
-23.390	0.000007
-23.385	-0.000013
-23.380	0.000007
-23.375	0.000014
-23.370	-0.000007
-23.365	0.000007
-23.360	-0.000020
-23.355	0.000000
-23.350	0.000007
-23.345	-0.000027
-23.340	-0.000020
-23.335	-0.000027
-23.330	0.000007
-23.325	0.000000
-23.320	-0.000020
-23.315	-0.000006
-23.310	-0.000020
-23.305	-0.000000
-23.300	0.000007
-23.295	-0.000014
-23.290	0.000007
-23.285	0.000013
-23.280	-0.000014
-23.275	0.000013
-23.270	-0.000007
-23.265	-0.000014
-23.260	-0.000034
-23.255	-0.000000
-23.250	-0.000000
-23.245	-0.000028
-23.240	-0.000007
-23.235	-0.000007
-23.230	-0.000021
-23.225	0.000013
-23.220	0.000006
-23.215	-0.000028
-23.210	-0.000014
-23.205	-0.000014
-23.200	0.000013
-23.195	-0.000014
-23.190	-0.000014
-23.185	-0.000000
-23.180	-0.000014
-23.175	-0.000014
-23.170	-0.000035
-23.165	-0.000028
-23.160	-0.000008
-23.155	-0.000015
-23.150	-0.000014
-23.145	0.000006
-23.140	-0.000015
-23.135	-0.000022
-23.130	0.000006
-23.125	-0.000028
-23.120	-0.000014
-23.115	-0.000021
-23.110	0.000013
-23.105	-0.000015
-23.100	-0.000001
-23.095	-0.000015
-23.090	-0.000001
-23.085	-0.000008
-23.080	-0.000008
-23.075	-0.000029
-23.070	-0.000022
-23.065	-0.000035
-23.060	-0.000022
-23.055	-0.000015
-23.050	-0.000042
-23.045	-0.000015
-23.040	-0.000002
-23.035	-0.000001
-23.030	0.000019
-23.025	-0.000001
-23.020	-0.000008
-23.015	-0.000036
-23.010	-0.000002
-23.005	-0.000029
-23.000	-0.000022
-22.995	-0.000036
-22.990	0.000006
-22.985	-0.000028
-22.980	-0.000029
-22.975	-0.000022
-22.970	-0.000002
-22.965	-0.000008
-22.960	-0.000002
-22.955	-0.000029
-22.950	0.000005
-22.945	-0.000015
-22.940	-0.000036
-22.935	-0.000009
-22.930	-0.000002
-22.925	-0.000029
-22.920	-0.000015
-22.915	-0.000042
-22.910	-0.000002
-22.905	0.000005
-22.900	-0.000022
-22.895	-0.000016
-22.890	-0.000016
-22.885	0.000011
-22.880	-0.000016
-22.875	-0.000016
-22.870	-0.000029
-22.865	-0.000063
-22.860	-0.000036
-22.855	-0.000015
-22.850	-0.000015
-22.845	-0.000002
-22.840	-0.000023
-22.835	0.000004
-22.830	0.000005
-22.825	-0.000022
-22.820	-0.000036
-22.815	-0.000009
-22.810	-0.000030
-22.805	-0.000036
-22.800	-0.000023
-22.795	-0.000003
-22.790	-0.000029
-22.785	0.000005
-22.780	-0.000016
-22.775	-0.000009
-22.770	-0.000009
-22.765	0.000018
-22.760	-0.000016
-22.755	0.000004
-22.750	0.000011
-22.745	-0.000016
-22.740	-0.000023
-22.735	-0.000030
-22.730	-0.000037
-22.725	-0.000030
-22.720	-0.000029
-22.715	0.000004
-22.710	-0.000003
-22.705	-0.000003
-22.700	-0.000010
-22.695	0.000011
-22.690	0.000004
-22.685	-0.000016
-22.680	-0.000050
-22.675	0.000004
-22.670	0.000004
-22.665	-0.000030
-22.660	-0.000023
-22.655	-0.000043
-22.650	-0.000030
-22.645	-0.000017
-22.640	-0.000010
-22.635	-0.000003
-22.630	0.000017
-22.625	-0.000037
-22.620	-0.000024
-22.615	-0.000010
-22.610	-0.000024
-22.605	-0.000024
-22.600	-0.000024
-22.595	-0.000044
-22.590	-0.000051
-22.585	-0.000023
-22.580	-0.000030
-22.575	-0.000044
-22.570	0.000003
-22.565	-0.000017
-22.560	-0.000024
-22.555	-0.000003
-22.550	-0.000030
-22.545	-0.000038
-22.540	0.000010
-22.535	-0.000038
-22.530	-0.000044
-22.525	-0.000065
-22.520	-0.000051
-22.515	-0.000024
-22.510	-0.000031
-22.505	-0.000024
-22.500	-0.000031
-22.495	-0.000031
-22.490	-0.000004
-22.485	-0.000052
-22.480	-0.000038
-22.475	-0.000045
-22.470	-0.000038
-22.465	-0.000058
-22.460	-0.000045
-22.455	-0.000038
-22.450	-0.000024
-22.445	0.000003
-22.440	-0.000038
-22.435	0.000003
-22.430	-0.000065
-22.425	0.000010
-22.420	-0.000058
-22.415	0.000003
-22.410	-0.000058
-22.405	-0.000065
-22.400	-0.000025
-22.395	-0.000052
-22.390	-0.000051
-22.385	-0.000045
-22.380	-0.000038
-22.375	-0.000025
-22.370	-0.000011
-22.365	0.000016
-22.360	-0.000011
-22.355	-0.000025
-22.350	-0.000011
-22.345	-0.000039
-22.340	-0.000052
-22.335	-0.000025
-22.330	-0.000039
-22.325	-0.000031
-22.320	-0.000024
-22.315	-0.000025
-22.310	-0.000039
-22.305	-0.000011
-22.300	-0.000025
-22.295	-0.000032
-22.290	-0.000005
-22.285	-0.000011
-22.280	-0.000025
-22.275	-0.000046
-22.270	-0.000046
-22.265	-0.000032
-22.260	-0.000025
-22.255	-0.000045
-22.250	-0.000059
-22.245	-0.000046
-22.240	-0.000005
-22.235	-0.000052
-22.230	0.000009
-22.225	-0.000032
-22.220	-0.000025
-22.215	-0.000025
-22.210	-0.000053
-22.205	-0.000032
-22.200	-0.000066
-22.195	-0.000039
-22.190	-0.000025
-22.185	-0.000045
-22.180	-0.000019
-22.175	-0.000046
-22.170	-0.000032
-22.165	-0.000012
-22.160	-0.000066
-22.155	-0.000039
-22.150	-0.000053
-22.145	-0.000032
-22.140	-0.000026
-22.135	-0.000060
-22.130	-0.000060
-22.125	-0.000053
-22.120	-0.000059
-22.115	-0.000018
-22.110	-0.000026
-22.105	-0.000053
-22.100	-0.000032
-22.095	-0.000005
-22.090	-0.000019
-22.085	-0.000053
-22.080	-0.000012
-22.075	-0.000033
-22.070	-0.000046
-22.065	-0.000080
-22.060	-0.000033
-22.055	-0.000046
-22.050	-0.000053
-22.045	-0.000033
-22.040	-0.000033
-22.035	-0.000053
-22.030	-0.000033
-22.025	-0.000046
-22.020	-0.000019
-22.015	-0.000053
-22.010	-0.000060
-22.005	-0.000060
-22.000	-0.000046
-21.995	-0.000040
-21.990	-0.000039
-21.985	0.000002
-21.980	-0.000033
-21.975	-0.000060
-21.970	-0.000040
-21.965	-0.000033
-21.960	-0.000006
-21.955	-0.000067
-21.950	-0.000020
-21.945	-0.000013
-21.940	-0.000033
-21.935	-0.000040
-21.930	-0.000033
-21.925	-0.000040
-21.920	-0.000046
-21.915	-0.000006
-21.910	-0.000020
-21.905	-0.000020
-21.900	-0.000006
-21.895	-0.000040
-21.890	-0.000020
-21.885	-0.000040
-21.880	-0.000040
-21.875	-0.000047
-21.870	-0.000033
-21.865	-0.000054
-21.860	-0.000040
-21.855	-0.000040
-21.850	-0.000033
-21.845	-0.000026
-21.840	-0.000047
-21.835	-0.000061
-21.830	-0.000047
-21.825	-0.000020
-21.820	-0.000020
-21.815	-0.000061
-21.810	-0.000020
-21.805	-0.000027
-21.800	-0.000040
-21.795	-0.000040
-21.790	-0.000040
-21.785	-0.000081
-21.780	-0.000020
-21.775	-0.000027
-21.770	-0.000040
-21.765	-0.000027
-21.760	-0.000033
-21.755	-0.000027
-21.750	-0.000020
-21.745	-0.000047
-21.740	-0.000020
-21.735	-0.000034
-21.730	-0.000020
-21.725	-0.000054
-21.720	-0.000047
-21.715	-0.000040
-21.710	-0.000007
-21.705	-0.000014
-21.700	-0.000007
-21.695	-0.000048
-21.690	-0.000027
-21.685	-0.000020
-21.680	-0.000020
-21.675	-0.000041
-21.670	-0.000054
-21.665	-0.000054
-21.660	-0.000041
-21.655	-0.000047
-21.650	-0.000034
-21.645	-0.000041
-21.640	-0.000021
-21.635	-0.000014
-21.630	-0.000020
-21.625	-0.000007
-21.620	-0.000014
-21.615	-0.000034
-21.610	-0.000020
-21.605	-0.000007
-21.600	-0.000034
-21.595	-0.000034
-21.590	-0.000020
-21.585	-0.000041
-21.580	-0.000020
-21.575	-0.000000
-21.570	-0.000007
-21.565	-0.000014
-21.560	-0.000027
-21.555	0.000013
-21.550	-0.000021
-21.545	-0.000048
-21.540	-0.000014
-21.535	-0.000028
-21.530	-0.000028
-21.525	-0.000034
-21.520	-0.000014
-21.515	-0.000055
-21.510	-0.000007
-21.505	0.000006
-21.500	-0.000007
-21.495	-0.000014
-21.490	0.000006
-21.485	0.000013
-21.480	-0.000014
-21.475	0.000006
-21.470	0.000006
-21.465	0.000013
-21.460	0.000020
-21.455	0.000068
-21.450	0.000102
-21.445	0.000129
-21.440	0.000259
-21.435	0.000396
-21.430	0.000636
-21.425	0.000966
-21.420	0.001420
-21.415	0.002042
-21.410	0.002889
-21.405	0.003911
-21.400	0.005211
-21.395	0.006744
-21.390	0.008557
-21.385	0.010699
-21.380	0.013213
-21.375	0.016060
-21.370	0.019107
-21.365	0.022424
-21.360	0.025897
-21.355	0.029553
-21.350	0.033242
-21.345	0.036864
-21.340	0.040592
-21.335	0.044271
-21.330	0.047765
-21.325	0.050497
-21.320	0.050483
-21.315	0.049533
-21.310	0.048719
-21.305	0.046802
-21.300	0.045194
-21.295	0.044352
-21.290	0.043452
-21.285	0.042547
-21.280	0.041954
-21.275	0.041380
-21.270	0.040009
-21.265	0.038813
-21.260	0.037948
-21.255	0.036928
-21.250	0.036287
-21.245	0.035778
-21.240	0.034926
-21.235	0.034334
-21.230	0.034032
-21.225	0.033382
-21.220	0.032820
-21.215	0.032314
-21.210	0.031902
-21.205	0.031486
-21.200	0.031150
-21.195	0.030829
-21.190	0.030634
-21.185	0.030608
-21.180	0.029924
-21.175	0.029034
-21.170	0.028627
-21.165	0.028419
-21.160	0.028104
-21.155	0.027551
-21.150	0.027224
-21.145	0.027169
-21.140	0.027243
-21.135	0.027455
-21.130	0.027094
-21.125	0.026213
-21.120	0.025821
-21.115	0.025674
-21.110	0.025504
-21.105	0.025236
-21.100	0.025085
-21.095	0.024956
-21.090	0.024653
-21.085	0.024314
-21.080	0.024079
-21.075	0.023919
-21.070	0.023701
-21.065	0.023459
-21.060	0.023173
-21.055	0.022970
-21.050	0.022810
-21.045	0.022747
-21.040	0.022617
-21.035	0.022437
-21.030	0.022277
-21.025	0.022154
-21.020	0.022006
-21.015	0.021876
-21.010	0.021789
-21.005	0.021707
-21.000	0.021637
-20.995	0.021531
-20.990	0.021338
-20.985	0.021102
-20.980	0.020933
-20.975	0.020791
-20.970	0.020688
-20.965	0.020550
-20.960	0.020417
-20.955	0.020271
-20.950	0.020194
-20.945	0.020040
-20.940	0.019927
-20.935	0.019798
-20.930	0.019691
-20.925	0.019572
-20.920	0.019464
-20.915	0.019326
-20.910	0.019289
-20.905	0.019152
-20.900	0.019041
-20.895	0.018959
-20.890	0.018863
-20.885	0.018739
-20.880	0.018659
-20.875	0.018551
-20.870	0.018462
-20.865	0.018393
-20.860	0.018323
-20.855	0.018237
-20.850	0.018126
-20.845	0.017988
-20.840	0.017929
-20.835	0.017790
-20.830	0.017704
-20.825	0.017614
-20.820	0.017502
-20.815	0.017414
-20.810	0.017359
-20.805	0.017234
-20.800	0.017181
-20.795	0.017123
-20.790	0.017088
-20.785	0.016989
-20.780	0.016944
-20.775	0.016911
-20.770	0.016824
-20.765	0.016753
-20.760	0.016680
-20.755	0.016602
-20.750	0.016449
-20.745	0.016388
-20.740	0.016303
-20.735	0.016283
-20.730	0.016188
-20.725	0.016098
-20.720	0.016072
-20.715	0.016021
-20.710	0.015947
-20.705	0.015862
-20.700	0.015834
-20.695	0.015731
-20.690	0.015686
-20.685	0.015621
-20.680	0.015570
-20.675	0.015483
-20.670	0.015487
-20.665	0.015393
-20.660	0.015363
-20.655	0.015312
