PK2650 Deflection Data
Z Position (mm)	100.000	W Position (deg)	216.00
Preform ID	Diameter (mm)	Time Stamp	Start Time	Operator	Serial Number
Test 1	25	03-Nov-22 18:05:01	03-Nov-22 18:06:13	[no user]	266007708
Radius (mm)	Deflection
-26.215	-0.000015
-26.210	0.000012
-26.205	0.000005
-26.200	-0.000008
-26.195	-0.000015
-26.190	0.000019
-26.185	-0.000022
-26.180	0.000039
-26.175	-0.000002
-26.170	0.000026
-26.165	0.000039
-26.160	0.000025
-26.155	0.000018
-26.150	0.000018
-26.145	-0.000002
-26.140	-0.000002
-26.135	-0.000016
-26.130	0.000032
-26.125	-0.000002
-26.120	0.000012
-26.115	0.000012
-26.110	-0.000002
-26.105	0.000011
-26.100	0.000039
-26.095	0.000018
-26.090	0.000012
-26.085	0.000018
-26.080	0.000011
-26.075	-0.000002
-26.070	0.000004
-26.065	-0.000003
-26.060	0.000011
-26.055	-0.000016
-26.050	0.000025
-26.045	-0.000002
-26.040	0.000025
-26.035	0.000011
-26.030	0.000024
-26.025	-0.000003
-26.020	0.000018
-26.015	0.000017
-26.010	0.000017
-26.005	0.000017
-26.000	0.000011
-25.995	0.000024
-25.990	0.000004
-25.985	0.000004
-25.980	0.000004
-25.975	0.000038
-25.970	0.000031
-25.965	0.000038
-25.960	0.000017
-25.955	0.000024
-25.950	0.000031
-25.945	-0.000010
-25.940	0.000004
-25.935	-0.000010
-25.930	0.000017
-25.925	0.000017
-25.920	0.000024
-25.915	0.000011
-25.910	0.000031
-25.905	0.000010
-25.900	0.000017
-25.895	0.000024
-25.890	0.000010
-25.885	0.000003
-25.880	0.000023
-25.875	0.000003
-25.870	0.000010
-25.865	-0.000011
-25.860	0.000003
-25.855	0.000010
-25.850	0.000031
-25.845	0.000017
-25.840	0.000017
-25.835	-0.000004
-25.830	0.000010
-25.825	0.000037
-25.820	0.000030
-25.815	0.000016
-25.810	0.000003
-25.805	0.000010
-25.800	0.000037
-25.795	0.000003
-25.790	-0.000010
-25.785	0.000044
-25.780	0.000044
-25.775	0.000030
-25.770	-0.000004
-25.765	0.000043
-25.760	0.000043
-25.755	0.000043
-25.750	0.000016
-25.745	0.000030
-25.740	-0.000011
-25.735	0.000016
-25.730	-0.000004
-25.725	0.000009
-25.720	0.000030
-25.715	0.000009
-25.710	-0.000011
-25.705	0.000002
-25.700	0.000064
-25.695	0.000023
-25.690	0.000030
-25.685	0.000036
-25.680	0.000016
-25.675	0.000009
-25.670	0.000016
-25.665	0.000029
-25.660	-0.000005
-25.655	-0.000004
-25.650	-0.000018
-25.645	0.000002
-25.640	0.000022
-25.635	0.000022
-25.630	0.000016
-25.625	0.000043
-25.620	0.000036
-25.615	0.000022
-25.610	0.000029
-25.605	0.000008
-25.600	0.000029
-25.595	0.000049
-25.590	0.000009
-25.585	0.000043
-25.580	0.000043
-25.575	0.000042
-25.570	0.000042
-25.565	0.000036
-25.560	0.000022
-25.555	0.000022
-25.550	0.000022
-25.545	0.000008
-25.540	0.000029
-25.535	0.000008
-25.530	0.000035
-25.525	0.000015
-25.520	-0.000018
-25.515	0.000015
-25.510	0.000022
-25.505	0.000022
-25.500	0.000015
-25.495	0.000035
-25.490	0.000028
-25.485	0.000049
-25.480	0.000022
-25.475	0.000035
-25.470	0.000001
-25.465	0.000021
-25.460	-0.000019
-25.455	0.000029
-25.450	0.000029
-25.445	0.000021
-25.440	0.000042
-25.435	0.000042
-25.430	0.000069
-25.425	0.000028
-25.420	0.000021
-25.415	-0.000006
-25.410	0.000042
-25.405	0.000021
-25.400	0.000035
-25.395	0.000008
-25.390	0.000015
-25.385	-0.000005
-25.380	0.000021
-25.375	0.000008
-25.370	0.000035
-25.365	0.000055
-25.360	0.000014
-25.355	0.000021
-25.350	0.000035
-25.345	0.000001
-25.340	0.000021
-25.335	0.000014
-25.330	0.000028
-25.325	0.000014
-25.320	0.000001
-25.315	0.000007
-25.310	0.000055
-25.305	0.000048
-25.300	0.000028
-25.295	0.000014
-25.290	0.000034
-25.285	0.000007
-25.280	0.000048
-25.275	0.000034
-25.270	-0.000006
-25.265	-0.000007
-25.260	-0.000006
-25.255	0.000042
-25.250	0.000014
-25.245	0.000034
-25.240	0.000020
-25.235	0.000034
-25.230	0.000014
-25.225	0.000014
-25.220	0.000034
-25.215	0.000041
-25.210	-0.000007
-25.205	0.000020
-25.200	-0.000000
-25.195	0.000020
-25.190	0.000014
-25.185	0.000014
-25.180	-0.000000
-25.175	0.000034
-25.170	0.000061
-25.165	0.000027
-25.160	0.000041
-25.155	0.000020
-25.150	0.000027
-25.145	0.000041
-25.140	0.000041
-25.135	0.000020
-25.130	0.000047
-25.125	0.000048
-25.120	0.000007
-25.115	0.000020
-25.110	0.000027
-25.105	0.000020
-25.100	0.000034
-25.095	0.000047
-25.090	0.000054
-25.085	0.000033
-25.080	0.000027
-25.075	-0.000007
-25.070	0.000033
-25.065	0.000006
-25.060	0.000013
-25.055	0.000048
-25.050	0.000041
-25.045	0.000027
-25.040	0.000033
-25.035	0.000026
-25.030	0.000054
-25.025	0.000020
-25.020	0.000040
-25.015	0.000006
-25.010	0.000033
-25.005	0.000026
-25.000	0.000026
-24.995	0.000019
-24.990	0.000041
-24.985	0.000040
-24.980	0.000006
-24.975	0.000047
-24.970	0.000047
-24.965	0.000060
-24.960	0.000006
-24.955	0.000006
-24.950	0.000019
-24.945	0.000006
-24.940	0.000019
-24.935	0.000046
-24.930	0.000012
-24.925	0.000020
-24.920	0.000040
-24.915	0.000040
-24.910	0.000040
-24.905	0.000053
-24.900	0.000047
-24.895	0.000040
-24.890	0.000067
-24.885	0.000047
-24.880	0.000026
-24.875	0.000006
-24.870	0.000019
-24.865	0.000012
-24.860	0.000026
-24.855	0.000027
-24.850	0.000040
-24.845	0.000053
-24.840	0.000019
-24.835	0.000046
-24.830	0.000060
-24.825	0.000040
-24.820	0.000046
-24.815	0.000039
-24.810	0.000039
-24.805	0.000039
-24.800	0.000019
-24.795	0.000046
-24.790	0.000053
-24.785	0.000006
-24.780	0.000053
-24.775	0.000046
-24.770	0.000053
-24.765	0.000012
-24.760	0.000046
-24.755	0.000046
-24.750	0.000026
-24.745	0.000019
-24.740	0.000026
-24.735	0.000025
-24.730	-0.000015
-24.725	0.000060
-24.720	0.000040
-24.715	0.000019
-24.710	0.000026
-24.705	0.000032
-24.700	0.000039
-24.695	0.000060
-24.690	0.000039
-24.685	0.000032
-24.680	0.000032
-24.675	0.000039
-24.670	0.000025
-24.665	0.000018
-24.660	0.000005
-24.655	0.000033
-24.650	0.000032
-24.645	0.000052
-24.640	0.000019
-24.635	0.000025
-24.630	0.000060
-24.625	0.000005
-24.620	0.000066
-24.615	0.000005
-24.610	0.000046
-24.605	0.000032
-24.600	0.000032
-24.595	0.000012
-24.590	0.000046
-24.585	0.000053
-24.580	0.000025
-24.575	0.000039
-24.570	0.000052
-24.565	0.000045
-24.560	0.000018
-24.555	0.000039
-24.550	0.000052
-24.545	0.000038
-24.540	0.000066
-24.535	0.000045
-24.530	0.000025
-24.525	0.000018
-24.520	0.000046
-24.515	0.000045
-24.510	0.000045
-24.505	0.000059
-24.500	0.000045
-24.495	0.000073
-24.490	0.000038
-24.485	0.000032
-24.480	0.000032
-24.475	0.000004
-24.470	0.000045
-24.465	0.000025
-24.460	0.000039
-24.455	0.000039
-24.450	0.000059
-24.445	0.000059
-24.440	0.000018
-24.435	0.000079
-24.430	0.000052
-24.425	0.000045
-24.420	0.000065
-24.415	0.000045
-24.410	0.000065
-24.405	0.000065
-24.400	0.000031
-24.395	0.000024
-24.390	0.000025
-24.385	0.000025
-24.380	0.000038
-24.375	0.000038
-24.370	0.000058
-24.365	0.000051
-24.360	0.000052
-24.355	0.000038
-24.350	0.000051
-24.345	0.000051
-24.340	0.000058
-24.335	0.000010
-24.330	0.000024
-24.325	0.000038
-24.320	0.000052
-24.315	0.000065
-24.310	0.000044
-24.305	0.000024
-24.300	0.000058
-24.295	0.000078
-24.290	0.000024
-24.285	0.000085
-24.280	0.000044
-24.275	0.000064
-24.270	0.000051
-24.265	0.000058
-24.260	0.000038
-24.255	0.000031
-24.250	0.000071
-24.245	0.000051
-24.240	0.000058
-24.235	0.000044
-24.230	0.000078
-24.225	0.000058
-24.220	0.000065
-24.215	0.000058
-24.210	0.000085
-24.205	0.000044
-24.200	0.000037
-24.195	0.000030
-24.190	0.000017
-24.185	0.000065
-24.180	0.000058
-24.175	0.000037
-24.170	0.000098
-24.165	0.000037
-24.160	0.000057
-24.155	0.000037
-24.150	0.000057
-24.145	0.000036
-24.140	0.000043
-24.135	0.000030
-24.130	0.000064
-24.125	0.000044
-24.120	0.000037
-24.115	0.000050
-24.110	0.000057
-24.105	0.000050
-24.100	0.000064
-24.095	0.000030
-24.090	0.000044
-24.085	0.000064
-24.080	0.000043
-24.075	0.000050
-24.070	0.000037
-24.065	0.000036
-24.060	0.000023
-24.055	0.000051
-24.050	0.000064
-24.045	0.000043
-24.040	0.000050
-24.035	0.000057
-24.030	0.000057
-24.025	0.000070
-24.020	0.000009
-24.015	0.000056
-24.010	0.000043
-24.005	0.000056
-24.000	0.000029
-23.995	0.000056
-23.990	0.000043
-23.985	0.000043
-23.980	0.000036
-23.975	0.000015
-23.970	0.000043
-23.965	0.000056
-23.960	0.000056
-23.955	0.000043
-23.950	0.000050
-23.945	0.000043
-23.940	0.000056
-23.935	0.000063
-23.930	0.000022
-23.925	0.000050
-23.920	0.000043
-23.915	0.000029
-23.910	0.000049
-23.905	0.000049
-23.900	0.000049
-23.895	0.000056
-23.890	0.000049
-23.885	0.000049
-23.880	0.000001
-23.875	0.000035
-23.870	0.000028
-23.865	0.000035
-23.860	0.000049
-23.855	0.000056
-23.850	0.000042
-23.845	0.000055
-23.840	0.000035
-23.835	0.000035
-23.830	0.000049
-23.825	0.000049
-23.820	0.000049
-23.815	0.000042
-23.810	0.000042
-23.805	0.000035
-23.800	0.000001
-23.795	0.000048
-23.790	0.000042
-23.785	0.000029
-23.780	0.000083
-23.775	0.000041
-23.770	0.000062
-23.765	0.000089
-23.760	0.000055
-23.755	0.000075
-23.750	0.000041
-23.745	0.000034
-23.740	0.000014
-23.735	0.000034
-23.730	0.000034
-23.725	0.000028
-23.720	0.000021
-23.715	0.000041
-23.710	0.000034
-23.705	0.000061
-23.700	0.000062
-23.695	0.000062
-23.690	0.000014
-23.685	0.000028
-23.680	0.000055
-23.675	0.000034
-23.670	0.000021
-23.665	0.000007
-23.660	0.000048
-23.655	0.000048
-23.650	0.000041
-23.645	0.000041
-23.640	0.000048
-23.635	0.000048
-23.630	0.000054
-23.625	0.000048
-23.620	0.000034
-23.615	0.000020
-23.610	0.000027
-23.605	0.000020
-23.600	0.000040
-23.595	0.000034
-23.590	0.000034
-23.585	0.000054
-23.580	0.000061
-23.575	0.000034
-23.570	0.000034
-23.565	-0.000007
-23.560	0.000034
-23.555	0.000054
-23.550	0.000013
-23.545	0.000013
-23.540	0.000020
-23.535	0.000033
-23.530	0.000006
-23.525	0.000013
-23.520	0.000020
-23.515	0.000013
-23.510	0.000026
-23.505	0.000013
-23.500	0.000033
-23.495	0.000006
-23.490	-0.000028
-23.485	-0.000015
-23.480	-0.000022
-23.475	-0.000015
-23.470	-0.000001
-23.465	-0.000008
-23.460	-0.000008
-23.455	-0.000021
-23.450	0.000026
-23.445	-0.000001
-23.440	0.000067
-23.435	0.000006
-23.430	0.000033
-23.425	0.000012
-23.420	0.000005
-23.415	0.000019
-23.410	0.000012
-23.405	-0.000022
-23.400	-0.000008
-23.395	-0.000008
-23.390	-0.000028
-23.385	0.000006
-23.380	0.000019
-23.375	0.000032
-23.370	0.000012
-23.365	0.000066
-23.360	0.000039
-23.355	0.000025
-23.350	0.000011
-23.345	0.000011
-23.340	0.000018
-23.335	-0.000023
-23.330	0.000039
-23.325	-0.000015
-23.320	0.000012
-23.315	0.000011
-23.310	0.000011
-23.305	0.000032
-23.300	0.000039
-23.295	0.000025
-23.290	0.000018
-23.285	0.000032
-23.280	-0.000016
-23.275	0.000004
-23.270	-0.000016
-23.265	-0.000003
-23.260	0.000005
-23.255	0.000005
-23.250	0.000018
-23.245	0.000031
-23.240	0.000004
-23.235	0.000018
-23.230	0.000045
-23.225	0.000031
-23.220	0.000024
-23.215	0.000045
-23.210	0.000004
-23.205	0.000031
-23.200	-0.000010
-23.195	0.000011
-23.190	0.000005
-23.185	0.000031
-23.180	0.000031
-23.175	-0.000003
-23.170	0.000024
-23.165	0.000031
-23.160	0.000031
-23.155	0.000038
-23.150	-0.000003
-23.145	0.000031
-23.140	0.000017
-23.135	-0.000017
-23.130	-0.000003
-23.125	0.000038
-23.120	0.000031
-23.115	0.000010
-23.110	-0.000003
-23.105	0.000031
-23.100	0.000031
-23.095	0.000010
-23.090	0.000030
-23.085	0.000024
-23.080	0.000030
-23.075	0.000023
-23.070	0.000023
-23.065	-0.000024
-23.060	-0.000003
-23.055	-0.000003
-23.050	0.000003
-23.045	-0.000010
-23.040	0.000017
-23.035	0.000003
-23.030	0.000024
-23.025	0.000024
-23.020	0.000010
-23.015	0.000017
-23.010	0.000023
-23.005	-0.000004
-23.000	0.000030
-22.995	0.000017
-22.990	0.000003
-22.985	0.000010
-22.980	0.000010
-22.975	0.000010
-22.970	0.000037
-22.965	0.000016
-22.960	0.000030
-22.955	0.000009
-22.950	0.000016
-22.945	-0.000032
-22.940	0.000023
-22.935	0.000002
-22.930	0.000002
-22.925	0.000003
-22.920	0.000023
-22.915	-0.000004
-22.910	0.000016
-22.905	0.000023
-22.900	0.000016
-22.895	0.000023
-22.890	0.000037
-22.885	0.000036
-22.880	0.000016
-22.875	0.000002
-22.870	0.000009
-22.865	0.000009
-22.860	0.000016
-22.855	-0.000018
-22.850	0.000016
-22.845	0.000023
-22.840	0.000002
-22.835	0.000002
-22.830	0.000023
-22.825	0.000009
-22.820	0.000002
-22.815	-0.000025
-22.810	-0.000005
-22.805	0.000015
-22.800	0.000009
-22.795	-0.000005
-22.790	0.000009
-22.785	-0.000012
-22.780	0.000015
-22.775	0.000029
-22.770	-0.000005
-22.765	0.000036
-22.760	0.000009
-22.755	0.000029
-22.750	0.000029
-22.745	0.000015
-22.740	-0.000005
-22.735	-0.000005
-22.730	0.000008
-22.725	0.000009
-22.720	0.000002
-22.715	0.000015
-22.710	0.000035
-22.705	-0.000005
-22.700	0.000015
-22.695	0.000015
-22.690	0.000022
-22.685	0.000001
-22.680	0.000022
-22.675	0.000001
-22.670	-0.000013
-22.665	-0.000026
-22.660	-0.000026
-22.655	-0.000019
-22.650	0.000029
-22.645	0.000001
-22.640	0.000015
-22.635	0.000042
-22.630	0.000008
-22.625	0.000015
-22.620	0.000035
-22.615	-0.000026
-22.610	-0.000006
-22.605	0.000001
-22.600	0.000021
-22.595	-0.000013
-22.590	0.000035
-22.585	-0.000026
-22.580	0.000008
-22.575	0.000001
-22.570	0.000035
-22.565	0.000021
-22.560	-0.000006
-22.555	0.000001
-22.550	0.000035
-22.545	0.000000
-22.540	-0.000006
-22.535	-0.000013
-22.530	-0.000006
-22.525	0.000021
-22.520	0.000014
-22.515	0.000021
-22.510	0.000027
-22.505	0.000021
-22.500	0.000021
-22.495	-0.000013
-22.490	0.000001
-22.485	0.000014
-22.480	0.000007
-22.475	0.000014
-22.470	0.000007
-22.465	-0.000027
-22.460	-0.000006
-22.455	0.000001
-22.450	-0.000013
-22.445	-0.000027
-22.440	-0.000014
-22.435	0.000014
-22.430	0.000020
-22.425	-0.000014
-22.420	-0.000007
-22.415	-0.000021
-22.410	-0.000048
-22.405	-0.000021
-22.400	-0.000000
-22.395	-0.000020
-22.390	-0.000013
-22.385	-0.000027
-22.380	0.000013
-22.375	0.000013
-22.370	-0.000014
-22.365	-0.000000
-22.360	-0.000007
-22.355	-0.000000
-22.350	-0.000000
-22.345	-0.000007
-22.340	-0.000007
-22.335	-0.000035
-22.330	-0.000000
-22.325	0.000007
-22.320	-0.000021
-22.315	0.000013
-22.310	-0.000001
-22.305	-0.000008
-22.300	-0.000001
-22.295	-0.000007
-22.290	0.000013
-22.285	-0.000008
-22.280	-0.000014
-22.275	-0.000042
-22.270	-0.000035
-22.265	-0.000042
-22.260	-0.000000
-22.255	-0.000014
-22.250	0.000006
-22.245	-0.000028
-22.240	0.000013
-22.235	-0.000001
-22.230	0.000013
-22.225	-0.000008
-22.220	-0.000008
-22.215	-0.000021
-22.210	0.000006
-22.205	-0.000021
-22.200	-0.000021
-22.195	-0.000014
-22.190	-0.000028
-22.185	0.000020
-22.180	-0.000035
-22.175	0.000013
-22.170	-0.000028
-22.165	-0.000001
-22.160	-0.000021
-22.155	0.000019
-22.150	-0.000001
-22.145	-0.000008
-22.140	-0.000022
-22.135	-0.000035
-22.130	-0.000008
-22.125	0.000019
-22.120	0.000006
-22.115	0.000012
-22.110	-0.000029
-22.105	-0.000008
-22.100	0.000005
-22.095	-0.000001
-22.090	-0.000022
-22.085	-0.000029
-22.080	-0.000015
-22.075	-0.000022
-22.070	-0.000015
-22.065	-0.000056
-22.060	-0.000035
-22.055	-0.000022
-22.050	0.000019
-22.045	0.000005
-22.040	-0.000002
-22.035	0.000005
-22.030	-0.000022
-22.025	-0.000009
-22.020	-0.000015
-22.015	-0.000036
-22.010	-0.000022
-22.005	-0.000050
-22.000	-0.000036
-21.995	-0.000022
-21.990	-0.000042
-21.985	-0.000002
-21.980	-0.000050
-21.975	-0.000002
-21.970	-0.000002
-21.965	0.000005
-21.960	-0.000009
-21.955	-0.000009
-21.950	-0.000016
-21.945	-0.000043
-21.940	-0.000023
-21.935	-0.000029
-21.930	-0.000023
-21.925	-0.000036
-21.920	-0.000022
-21.915	-0.000036
-21.910	0.000005
-21.905	0.000004
-21.900	-0.000002
-21.895	-0.000002
-21.890	-0.000009
-21.885	-0.000003
-21.880	-0.000050
-21.875	-0.000043
-21.870	-0.000023
-21.865	-0.000043
-21.860	-0.000029
-21.855	-0.000023
-21.850	-0.000002
-21.845	-0.000003
-21.840	-0.000016
-21.835	-0.000016
-21.830	-0.000036
-21.825	-0.000023
-21.820	-0.000050
-21.815	-0.000037
-21.810	-0.000023
-21.805	-0.000023
-21.800	-0.000016
-21.795	-0.000050
-21.790	-0.000009
-21.785	-0.000043
-21.780	-0.000023
-21.775	-0.000037
-21.770	0.000024
-21.765	-0.000037
-21.760	0.000004
-21.755	-0.000023
-21.750	0.000004
-21.745	-0.000057
-21.740	-0.000044
-21.735	-0.000051
-21.730	-0.000057
-21.725	-0.000016
-21.720	-0.000043
-21.715	-0.000030
-21.710	-0.000010
-21.705	-0.000010
-21.700	0.000004
-21.695	-0.000010
-21.690	-0.000030
-21.685	-0.000024
-21.680	-0.000017
-21.675	0.000010
-21.670	-0.000010
-21.665	-0.000037
-21.660	-0.000003
-21.655	-0.000064
-21.650	-0.000010
-21.645	-0.000024
-21.640	0.000003
-21.635	-0.000017
-21.630	-0.000004
-21.625	-0.000024
-21.620	-0.000017
-21.615	-0.000024
-21.610	-0.000031
-21.605	-0.000038
-21.600	-0.000031
-21.595	-0.000071
-21.590	-0.000037
-21.585	-0.000024
-21.580	0.000010
-21.575	0.000023
-21.570	0.000003
-21.565	-0.000010
-21.560	0.000003
-21.555	0.000017
-21.550	-0.000065
-21.545	-0.000011
-21.540	-0.000011
-21.535	-0.000018
-21.530	-0.000045
-21.525	-0.000017
-21.520	-0.000004
-21.515	0.000003
-21.510	-0.000004
-21.505	0.000016
-21.500	-0.000011
-21.495	0.000009
-21.490	0.000016
-21.485	0.000016
-21.480	0.000030
-21.475	0.000003
-21.470	0.000003
-21.465	-0.000004
-21.460	0.000017
-21.455	0.000085
-21.450	0.000078
-21.445	0.000173
-21.440	0.000276
-21.435	0.000447
-21.430	0.000701
-21.425	0.001010
-21.420	0.001486
-21.415	0.002108
-21.410	0.002963
-21.405	0.004070
-21.400	0.005351
-21.395	0.006924
-21.390	0.008787
-21.385	0.010901
-21.380	0.013425
-21.375	0.016295
-21.370	0.019388
-21.365	0.022704
-21.360	0.026246
-21.355	0.029874
-21.350	0.033510
-21.345	0.037126
-21.340	0.040797
-21.335	0.044440
-21.330	0.047903
-21.325	0.050543
-21.320	0.050373
-21.315	0.049413
-21.310	0.048563
-21.305	0.046697
-21.300	0.045128
-21.295	0.044281
-21.290	0.043413
-21.285	0.042492
-21.280	0.041989
-21.275	0.041380
-21.270	0.039882
-21.265	0.038704
-21.260	0.037880
-21.255	0.036878
-21.250	0.036288
-21.245	0.035740
-21.240	0.034848
-21.235	0.034319
-21.230	0.033990
-21.225	0.033348
-21.220	0.032746
-21.215	0.032253
-21.210	0.031835
-21.205	0.031430
-21.200	0.031122
-21.195	0.030856
-21.190	0.030632
-21.185	0.030485
-21.180	0.029791
-21.175	0.028973
-21.170	0.028583
-21.165	0.028407
-21.160	0.028108
-21.155	0.027545
-21.150	0.027218
-21.145	0.027153
-21.140	0.027289
-21.135	0.027516
-21.130	0.027055
-21.125	0.026124
-21.120	0.025773
-21.115	0.025633
-21.110	0.025457
-21.105	0.025223
-21.100	0.025053
-21.095	0.024910
-21.090	0.024604
-21.085	0.024296
-21.080	0.024038
-21.075	0.023888
-21.070	0.023650
-21.065	0.023406
-21.060	0.023151
-21.055	0.022953
-21.050	0.022794
-21.045	0.022719
-21.040	0.022565
-21.035	0.022431
-21.030	0.022264
-21.025	0.022104
-21.020	0.021991
-21.015	0.021824
-21.010	0.021730
-21.005	0.021663
-21.000	0.021639
-20.995	0.021542
-20.990	0.021263
-20.985	0.021078
-20.980	0.020922
-20.975	0.020826
-20.970	0.020659
-20.965	0.020537
-20.960	0.020391
-20.955	0.020239
-20.950	0.020148
-20.945	0.020007
-20.940	0.019925
-20.935	0.019778
-20.930	0.019690
-20.925	0.019532
-20.920	0.019433
-20.915	0.019314
-20.910	0.019201
-20.905	0.019127
-20.900	0.019025
-20.895	0.018914
-20.890	0.018817
-20.885	0.018696
-20.880	0.018629
-20.875	0.018532
-20.870	0.018505
-20.865	0.018378
-20.860	0.018323
-20.855	0.018257
-20.850	0.018124
-20.845	0.017997
-20.840	0.017901
-20.835	0.017786
-20.830	0.017697
-20.825	0.017607
-20.820	0.017520
-20.815	0.017414
-20.810	0.017340
-20.805	0.017212
-20.800	0.017179
-20.795	0.017114
-20.790	0.017056
-20.785	0.016987
-20.780	0.016942
-20.775	0.016901
-20.770	0.016833
-20.765	0.016777
-20.760	0.016683
-20.755	0.016522
-20.750	0.016468
-20.745	0.016399
-20.740	0.016328
-20.735	0.016238
-20.730	0.016167
-20.725	0.016131
-20.720	0.016091
-20.715	0.016012
-20.710	0.015933
-20.705	0.015891
-20.700	0.015811
-20.695	0.015755
-20.690	0.015683
-20.685	0.015628
-20.680	0.015595
-20.675	0.015472
-20.670	0.015451
-20.665	0.015405
-20.660	0.015347
-20.655	0.015328
-20.650	0.015250
-20.645	0.015193
-20.640	0.015149
-20.635	0.015103
-20.630	0.015051
-20.625	0.014995
-20.620	0.014968
-20.615	0.014876
-20.610	0.014861
-20.605	0.014785
-20.600	0.014730
-20.595	0.014684
-20.590	0.014643
-20.585	0.014597
-20.580	0.014572
-20.575	0.014515
-20.570	0.014468
-20.565	0.014426
-20.560	0.014310
-20.555	0.014327
-20.550	0.014241
-20.545	0.014183
-20.540	0.014160
-20.535	0.014116
-20.530	0.014085
-20.525	0.014059
-20.520	0.014002
-20.515	0.013980
-20.510	0.013899
-20.505	0.013889
-20.500	0.013818
-20.495	0.013809
-20.490	0.013768
-20.485	0.013760
-20.480	0.013707
