PK2650 Deflection Data
Z Position (mm)	50.000	W Position (deg)	60.00
Preform ID	Diameter (mm)	Time Stamp	Start Time	Operator	Serial Number
test	18	22-Mar-23 22:58:02	22-Mar-23 23:03:44	[no user]	56941311
Radius (mm)	Deflection
-13.680	0.000041
-13.675	0.000046
-13.670	0.000011
-13.665	0.000027
-13.660	0.000046
-13.655	0.000037
-13.650	0.000012
-13.645	0.000037
-13.640	0.000022
-13.635	0.000032
-13.630	0.000027
-13.625	0.000022
-13.620	0.000022
-13.615	0.000022
-13.610	0.000027
-13.605	0.000037
-13.600	0.000017
-13.595	0.000032
-13.590	0.000022
-13.585	0.000042
-13.580	0.000017
-13.575	0.000022
-13.570	0.000052
-13.565	0.000012
-13.560	0.000007
-13.555	0.000012
-13.550	0.000012
-13.545	-0.000003
-13.540	0.000047
-13.535	0.000037
-13.530	0.000012
-13.525	0.000007
-13.520	0.000027
-13.515	0.000032
-13.510	0.000037
-13.505	0.000017
-13.500	0.000022
-13.495	0.000042
-13.490	0.000022
-13.485	0.000002
-13.480	0.000023
-13.475	0.000028
-13.470	0.000032
-13.465	0.000027
-13.460	0.000037
-13.455	0.000037
-13.450	0.000027
-13.445	0.000008
-13.440	0.000028
-13.435	0.000013
-13.430	0.000047
-13.425	0.000008
-13.420	0.000028
-13.415	-0.000007
-13.410	0.000003
-13.405	0.000023
-13.400	0.000038
-13.395	0.000023
-13.390	-0.000022
-13.385	0.000008
-13.380	0.000033
-13.375	0.000028
-13.370	0.000038
-13.365	0.000013
-13.360	0.000008
-13.355	0.000023
-13.350	0.000033
-13.345	0.000023
-13.340	0.000033
-13.335	0.000008
-13.330	0.000023
-13.325	0.000013
-13.320	0.000013
-13.315	0.000033
-13.310	0.000028
-13.305	0.000003
-13.300	0.000013
-13.295	0.000018
-13.290	0.000003
-13.285	0.000003
-13.280	0.000004
-13.275	0.000028
-13.270	-0.000001
-13.265	-0.000001
-13.260	0.000009
-13.255	0.000014
-13.250	0.000004
-13.245	0.000024
-13.240	0.000024
-13.235	0.000019
-13.230	0.000019
-13.225	0.000009
-13.220	0.000024
-13.215	0.000019
-13.210	0.000024
-13.205	0.000019
-13.200	0.000024
-13.195	0.000024
-13.190	0.000014
-13.185	0.000019
-13.180	0.000009
-13.175	0.000004
-13.170	0.000014
-13.165	0.000014
-13.160	0.000009
-13.155	0.000039
-13.150	-0.000001
-13.145	0.000024
-13.140	0.000014
-13.135	0.000019
-13.130	0.000024
-13.125	0.000009
-13.120	0.000009
-13.115	0.000029
-13.110	-0.000001
-13.105	0.000029
-13.100	0.000014
-13.095	0.000004
-13.090	0.000019
-13.085	0.000014
-13.080	-0.000005
-13.075	-0.000000
-13.070	-0.000000
-13.065	0.000005
-13.060	0.000020
-13.055	-0.000000
-13.050	-0.000005
-13.045	0.000024
-13.040	0.000035
-13.035	0.000010
-13.030	-0.000015
-13.025	-0.000005
-13.020	0.000035
-13.015	-0.000000
-13.010	-0.000005
-13.005	-0.000005
-13.000	0.000005
-12.995	0.000000
-12.990	0.000005
-12.985	-0.000000
-12.980	0.000020
-12.975	0.000025
-12.970	0.000000
-12.965	0.000020
-12.960	0.000040
-12.955	-0.000004
-12.950	-0.000010
-12.945	0.000010
-12.940	0.000025
-12.935	0.000025
-12.930	0.000005
-12.925	0.000015
-12.920	0.000021
-12.915	0.000016
-12.910	-0.000004
-12.905	0.000001
-12.900	0.000011
-12.895	0.000036
-12.890	0.000030
-12.885	-0.000009
-12.880	0.000016
-12.875	0.000011
-12.870	0.000026
-12.865	0.000036
-12.860	0.000016
-12.855	0.000001
-12.850	0.000021
-12.845	0.000016
-12.840	0.000026
-12.835	0.000011
-12.830	0.000011
-12.825	0.000011
-12.820	0.000011
-12.815	0.000006
-12.810	0.000021
-12.805	0.000011
-12.800	-0.000009
-12.795	0.000011
-12.790	0.000016
-12.785	-0.000014
-12.780	-0.000014
-12.775	0.000011
-12.770	-0.000004
-12.765	-0.000004
-12.760	0.000021
-12.755	0.000011
-12.750	-0.000019
-12.745	0.000006
-12.740	-0.000009
-12.735	0.000006
-12.730	0.000006
-12.725	0.000011
-12.720	-0.000003
-12.715	0.000002
-12.710	0.000016
-12.705	0.000007
-12.700	-0.000003
-12.695	0.000012
-12.690	0.000022
-12.685	0.000022
-12.680	0.000022
-12.675	0.000012
-12.670	0.000012
-12.665	0.000007
-12.660	0.000027
-12.655	0.000012
-12.650	0.000002
-12.645	0.000007
-12.640	0.000012
-12.635	0.000022
-12.630	0.000007
-12.625	-0.000003
-12.620	-0.000013
-12.615	0.000017
-12.610	0.000002
-12.605	0.000007
-12.600	0.000007
-12.595	0.000002
-12.590	0.000012
-12.585	0.000002
-12.580	-0.000008
-12.575	0.000017
-12.570	0.000012
-12.565	0.000012
-12.560	-0.000023
-12.555	-0.000008
-12.550	0.000003
-12.545	-0.000012
-12.540	-0.000032
-12.535	-0.000008
-12.530	-0.000007
-12.525	-0.000013
-12.520	-0.000023
-12.515	-0.000003
-12.510	0.000012
-12.505	0.000002
-12.500	0.000007
-12.495	-0.000032
-12.490	-0.000012
-12.485	-0.000027
-12.480	-0.000002
-12.475	-0.000007
-12.470	-0.000007
-12.465	-0.000027
-12.460	-0.000017
-12.455	-0.000027
-12.450	-0.000012
-12.445	0.000008
-12.440	-0.000027
-12.435	-0.000017
-12.430	-0.000012
-12.425	-0.000032
-12.420	-0.000027
-12.415	-0.000007
-12.410	-0.000017
-12.405	-0.000027
-12.400	-0.000022
-12.395	-0.000017
-12.390	-0.000022
-12.385	-0.000017
-12.380	-0.000027
-12.375	-0.000027
-12.370	0.000003
-12.365	-0.000022
-12.360	-0.000036
-12.355	-0.000036
-12.350	-0.000012
-12.345	-0.000017
-12.340	-0.000017
-12.335	-0.000022
-12.330	-0.000021
-12.325	-0.000021
-12.320	-0.000031
-12.315	-0.000016
-12.310	-0.000031
-12.305	-0.000026
-12.300	-0.000016
-12.295	-0.000026
-12.290	-0.000026
-12.285	-0.000006
-12.280	-0.000026
-12.275	-0.000011
-12.270	-0.000021
-12.265	-0.000026
-12.260	-0.000056
-12.255	-0.000031
-12.250	-0.000011
-12.245	-0.000036
-12.240	-0.000016
-12.235	-0.000031
-12.230	-0.000031
-12.225	-0.000041
-12.220	-0.000026
-12.215	-0.000031
-12.210	-0.000016
-12.205	-0.000016
-12.200	-0.000031
-12.195	-0.000031
-12.190	-0.000030
-12.185	-0.000016
-12.180	-0.000011
-12.175	-0.000026
-12.170	-0.000030
-12.165	-0.000025
-12.160	-0.000040
-12.155	-0.000021
-12.150	0.000029
-12.145	-0.000050
-12.140	-0.000045
-12.135	-0.000025
-12.130	-0.000035
-12.125	-0.000025
-12.120	-0.000040
-12.115	-0.000025
-12.110	-0.000035
-12.105	-0.000000
-12.100	-0.000040
-12.095	-0.000025
-12.090	-0.000050
-12.085	-0.000015
-12.080	-0.000015
-12.075	-0.000025
-12.070	-0.000025
-12.065	-0.000030
-12.060	-0.000025
-12.055	-0.000015
-12.050	-0.000035
-12.045	-0.000045
-12.040	-0.000025
-12.035	-0.000030
-12.030	-0.000040
-12.025	-0.000035
-12.020	-0.000020
-12.015	-0.000030
-12.010	-0.000050
-12.005	-0.000040
-12.000	-0.000025
-11.995	-0.000050
-11.990	-0.000030
-11.985	-0.000035
-11.980	-0.000025
-11.975	-0.000045
-11.970	-0.000034
-11.965	-0.000030
-11.960	-0.000045
-11.955	-0.000054
-11.950	-0.000029
-11.945	-0.000039
-11.940	-0.000030
-11.935	-0.000064
-11.930	-0.000054
-11.925	-0.000039
-11.920	-0.000049
-11.915	-0.000049
-11.910	-0.000024
-11.905	-0.000024
-11.900	-0.000054
-11.895	-0.000039
-11.890	-0.000024
-11.885	-0.000039
-11.880	-0.000034
-11.875	-0.000044
-11.870	-0.000029
-11.865	-0.000039
-11.860	-0.000039
-11.855	-0.000024
-11.850	-0.000038
-11.845	-0.000024
-11.840	-0.000014
-11.835	-0.000054
-11.830	-0.000034
-11.825	-0.000029
-11.820	-0.000054
-11.815	-0.000049
-11.810	-0.000038
-11.805	-0.000033
-11.800	-0.000029
-11.795	-0.000034
-11.790	-0.000038
-11.785	-0.000023
-11.780	-0.000029
-11.775	-0.000028
-11.770	-0.000023
-11.765	-0.000028
-11.760	-0.000043
-11.755	-0.000028
-11.750	-0.000003
-11.745	-0.000028
-11.740	-0.000023
-11.735	-0.000028
-11.730	-0.000033
-11.725	-0.000023
-11.720	-0.000038
-11.715	-0.000038
-11.710	-0.000033
-11.705	-0.000018
-11.700	-0.000038
-11.695	-0.000038
-11.690	-0.000033
-11.685	-0.000013
-11.680	-0.000028
-11.675	-0.000043
-11.670	-0.000033
-11.665	-0.000048
-11.660	-0.000038
-11.655	-0.000028
-11.650	-0.000023
-11.645	-0.000013
-11.640	-0.000043
-11.635	-0.000018
-11.630	-0.000042
-11.625	-0.000047
-11.620	-0.000013
-11.615	-0.000033
-11.610	-0.000013
-11.605	-0.000018
-11.600	-0.000028
-11.595	-0.000027
-11.590	-0.000027
-11.585	-0.000032
-11.580	-0.000027
-11.575	-0.000027
-11.570	-0.000012
-11.565	-0.000027
-11.560	-0.000017
-11.555	-0.000037
-11.550	-0.000032
-11.545	-0.000037
-11.540	-0.000022
-11.535	-0.000002
-11.530	-0.000027
-11.525	-0.000017
-11.520	-0.000012
-11.515	-0.000022
-11.510	-0.000037
-11.505	-0.000032
-11.500	-0.000052
-11.495	-0.000037
-11.490	-0.000022
-11.485	-0.000052
-11.480	-0.000022
-11.475	-0.000027
-11.470	-0.000042
-11.465	-0.000022
-11.460	-0.000027
-11.455	-0.000017
-11.450	-0.000037
-11.445	-0.000002
-11.440	-0.000002
-11.435	-0.000027
-11.430	-0.000002
-11.425	-0.000032
-11.420	-0.000002
-11.415	-0.000017
-11.410	-0.000007
-11.405	-0.000012
-11.400	-0.000031
-11.395	-0.000036
-11.390	-0.000017
-11.385	-0.000002
-11.380	-0.000026
-11.375	-0.000016
-11.370	-0.000017
-11.365	-0.000006
-11.360	-0.000016
-11.355	-0.000031
-11.350	-0.000046
-11.345	-0.000016
-11.340	-0.000026
-11.335	-0.000011
-11.330	-0.000016
-11.325	-0.000011
-11.320	-0.000031
-11.315	-0.000021
-11.310	-0.000031
-11.305	-0.000041
-11.300	-0.000036
-11.295	-0.000046
-11.290	-0.000016
-11.285	-0.000031
-11.280	-0.000036
-11.275	-0.000021
-11.270	-0.000036
-11.265	-0.000031
-11.260	-0.000016
-11.255	-0.000041
-11.250	-0.000031
-11.245	-0.000026
-11.240	-0.000031
-11.235	-0.000016
-11.230	-0.000036
-11.225	-0.000021
-11.220	-0.000035
-11.215	-0.000031
-11.210	-0.000031
-11.205	-0.000041
-11.200	-0.000035
-11.195	-0.000025
-11.190	-0.000036
-11.185	-0.000030
-11.180	-0.000020
-11.175	-0.000010
-11.170	-0.000036
-11.165	-0.000016
-11.160	-0.000006
-11.155	-0.000035
-11.150	-0.000026
-11.145	-0.000040
-11.140	-0.000010
-11.135	-0.000005
-11.130	-0.000020
-11.125	-0.000010
-11.120	-0.000010
-11.115	0.000005
-11.110	-0.000020
-11.105	-0.000015
-11.100	-0.000010
-11.095	-0.000005
-11.090	-0.000015
-11.085	0.000020
-11.080	0.000020
-11.075	0.000005
-11.070	-0.000000
-11.065	0.000010
-11.060	0.000010
-11.055	0.000010
-11.050	-0.000010
-11.045	0.000015
-11.040	0.000015
-11.035	0.000015
-11.030	0.000005
-11.025	0.000015
-11.020	0.000005
-11.015	0.000025
-11.010	0.000000
-11.005	0.000010
-11.000	0.000010
-10.995	-0.000010
-10.990	-0.000005
-10.985	-0.000005
-10.980	0.000005
-10.975	-0.000009
-10.970	0.000001
-10.965	-0.000009
-10.960	-0.000019
-10.955	0.000006
-10.950	-0.000029
-10.945	-0.000009
-10.940	-0.000005
-10.935	0.000000
-10.930	-0.000034
-10.925	-0.000014
-10.920	-0.000015
-10.915	-0.000034
-10.910	-0.000039
-10.905	-0.000019
-10.900	-0.000064
-10.895	-0.000049
-10.890	-0.000024
-10.885	-0.000024
-10.880	-0.000024
-10.875	-0.000024
-10.870	-0.000029
-10.865	-0.000029
-10.860	-0.000054
-10.855	-0.000019
-10.850	-0.000024
-10.845	-0.000044
-10.840	-0.000024
-10.835	-0.000044
-10.830	-0.000034
-10.825	-0.000044
-10.820	-0.000044
-10.815	-0.000034
-10.810	-0.000039
-10.805	-0.000054
-10.800	-0.000039
-10.795	-0.000019
-10.790	-0.000044
-10.785	-0.000034
-10.780	-0.000029
-10.775	-0.000054
-10.770	-0.000044
-10.765	-0.000034
-10.760	-0.000029
-10.755	-0.000034
-10.750	-0.000009
-10.745	-0.000039
-10.740	-0.000014
-10.735	-0.000019
-10.730	-0.000048
-10.725	-0.000014
-10.720	-0.000023
-10.715	-0.000023
-10.710	-0.000014
-10.705	-0.000028
-10.700	-0.000023
-10.695	-0.000028
-10.690	-0.000038
-10.685	-0.000038
-10.680	-0.000023
-10.675	-0.000023
-10.670	-0.000038
-10.665	-0.000043
-10.660	-0.000023
-10.655	-0.000008
-10.650	-0.000053
-10.645	-0.000048
-10.640	-0.000018
-10.635	-0.000028
-10.630	-0.000048
-10.625	-0.000053
-10.620	-0.000038
-10.615	-0.000043
-10.610	-0.000048
-10.605	-0.000043
-10.600	-0.000018
-10.595	-0.000028
-10.590	-0.000033
-10.585	-0.000048
-10.580	-0.000048
-10.575	-0.000058
-10.570	-0.000038
-10.565	-0.000043
-10.560	-0.000033
-10.555	-0.000033
-10.550	-0.000053
-10.545	-0.000053
-10.540	-0.000037
-10.535	-0.000047
-10.530	-0.000038
-10.525	-0.000033
-10.520	-0.000037
-10.515	-0.000027
-10.510	-0.000067
-10.505	-0.000038
-10.500	-0.000032
-10.495	-0.000042
-10.490	-0.000063
-10.485	-0.000058
-10.480	-0.000037
-10.475	-0.000042
-10.470	-0.000042
-10.465	-0.000037
-10.460	-0.000027
-10.455	-0.000037
-10.450	-0.000027
-10.445	-0.000022
-10.440	-0.000062
-10.435	-0.000037
-10.430	-0.000037
-10.425	-0.000042
-10.420	-0.000052
-10.415	-0.000012
-10.410	-0.000042
-10.405	-0.000052
-10.400	-0.000062
-10.395	-0.000037
-10.390	-0.000032
-10.385	-0.000027
-10.380	-0.000017
-10.375	-0.000037
-10.370	-0.000042
-10.365	-0.000027
-10.360	-0.000037
-10.355	-0.000022
-10.350	-0.000057
-10.345	-0.000032
-10.340	-0.000027
-10.335	-0.000031
-10.330	-0.000042
-10.325	-0.000041
-10.320	-0.000046
-10.315	-0.000031
-10.310	-0.000061
-10.305	-0.000056
-10.300	-0.000031
-10.295	-0.000026
-10.290	-0.000026
-10.285	-0.000041
-10.280	-0.000031
-10.275	-0.000056
-10.270	-0.000051
-10.265	-0.000056
-10.260	-0.000016
-10.255	-0.000046
-10.250	-0.000066
-10.245	-0.000071
-10.240	-0.000036
-10.235	-0.000021
-10.230	-0.000041
-10.225	-0.000046
-10.220	-0.000036
-10.215	-0.000036
-10.210	-0.000036
-10.205	-0.000041
-10.200	-0.000026
-10.195	-0.000061
-10.190	-0.000021
-10.185	-0.000031
-10.180	-0.000041
-10.175	-0.000055
-10.170	-0.000036
-10.165	-0.000036
-10.160	-0.000026
-10.155	-0.000050
-10.150	-0.000026
-10.145	-0.000055
-10.140	-0.000055
-10.135	-0.000040
-10.130	-0.000050
-10.125	-0.000055
-10.120	-0.000025
-10.115	-0.000035
-10.110	-0.000025
-10.105	-0.000040
-10.100	-0.000040
-10.095	-0.000035
-10.090	-0.000020
-10.085	-0.000020
-10.080	-0.000025
-10.075	-0.000055
-10.070	-0.000050
-10.065	-0.000025
-10.060	-0.000060
-10.055	-0.000050
-10.050	-0.000045
-10.045	-0.000025
-10.040	-0.000060
-10.035	-0.000020
-10.030	-0.000035
-10.025	-0.000030
-10.020	-0.000025
-10.015	-0.000025
-10.010	-0.000040
-10.005	-0.000035
-10.000	-0.000044
-9.995	-0.000035
-9.990	-0.000030
-9.985	-0.000020
-9.980	-0.000020
-9.975	-0.000010
-9.970	-0.000050
-9.965	-0.000025
-9.960	-0.000034
-9.955	-0.000024
-9.950	-0.000030
-9.945	-0.000029
-9.940	-0.000049
-9.935	-0.000014
-9.930	-0.000044
-9.925	-0.000044
-9.920	-0.000029
-9.915	-0.000029
-9.910	-0.000019
-9.905	-0.000024
-9.900	-0.000029
-9.895	-0.000024
-9.890	-0.000054
-9.885	-0.000044
-9.880	-0.000004
-9.875	-0.000009
-9.870	0.000001
-9.865	-0.000030
-9.860	0.000375
-9.855	-0.000356
-9.850	-0.000154
-9.845	-0.000054
-9.840	-0.000029
-9.835	-0.000034
-9.830	-0.000049
-9.825	-0.000039
-9.820	-0.000029
-9.815	-0.000029
-9.810	-0.000039
-9.805	-0.000044
-9.800	-0.000058
-9.795	-0.000034
-9.790	-0.000029
-9.785	-0.000034
-9.780	-0.000048
-9.775	-0.000053
-9.770	-0.000023
-9.765	-0.000038
-9.760	-0.000048
-9.755	-0.000043
-9.750	-0.000029
-9.745	-0.000023
-9.740	-0.000043
-9.735	-0.000048
-9.730	-0.000033
-9.725	0.000002
-9.720	-0.000033
-9.715	-0.000038
-9.710	-0.000023
-9.705	-0.000033
-9.700	-0.000038
-9.695	-0.000048
-9.690	-0.000033
-9.685	-0.000048
-9.680	-0.000028
-9.675	-0.000008
-9.670	-0.000028
-9.665	-0.000048
-9.660	-0.000033
-9.655	-0.000043
-9.650	-0.000063
-9.645	-0.000028
-9.640	-0.000023
-9.635	-0.000023
-9.630	-0.000033
-9.625	-0.000023
-9.620	-0.000033
-9.615	-0.000023
-9.610	-0.000043
-9.605	-0.000048
-9.600	-0.000013
-9.595	-0.000023
-9.590	-0.000053
-9.585	-0.000033
-9.580	-0.000038
-9.575	-0.000038
-9.570	-0.000063
-9.565	-0.000053
-9.560	-0.000042
-9.555	-0.000042
-9.550	-0.000048
-9.545	-0.000063
-9.540	-0.000018
-9.535	-0.000037
-9.530	-0.000073
-9.525	-0.000038
-9.520	-0.000012
-9.515	-0.000022
-9.510	-0.000032
-9.505	-0.000037
-9.500	-0.000017
-9.495	-0.000032
-9.490	-0.000023
-9.485	-0.000047
-9.480	-0.000022
-9.475	-0.000032
-9.470	-0.000037
-9.465	-0.000022
-9.460	-0.000032
-9.455	-0.000052
-9.450	-0.000032
-9.445	-0.000037
-9.440	-0.000042
-9.435	-0.000017
-9.430	-0.000027
-9.425	-0.000032
-9.420	-0.000007
-9.415	-0.000027
-9.410	-0.000062
-9.405	-0.000037
-9.400	-0.000017
-9.395	-0.000027
-9.390	-0.000032
-9.385	-0.000032
-9.380	-0.000022
-9.375	-0.000032
-9.370	-0.000032
-9.365	-0.000022
-9.360	-0.000022
-9.355	-0.000022
-9.350	-0.000037
-9.345	-0.000012
-9.340	-0.000026
-9.335	0.000008
-9.330	-0.000017
-9.325	-0.000001
-9.320	-0.000016
-9.315	-0.000011
-9.310	-0.000026
-9.305	-0.000011
-9.300	-0.000011
-9.295	-0.000006
-9.290	-0.000051
-9.285	-0.000026
-9.280	-0.000026
-9.275	-0.000026
-9.270	-0.000006
-9.265	-0.000031
-9.260	-0.000021
-9.255	-0.000026
-9.250	-0.000011
-9.245	0.000019
-9.240	-0.000016
-9.235	-0.000021
-9.230	-0.000011
-9.225	-0.000011
-9.220	-0.000016
-9.215	-0.000021
-9.210	-0.000011
-9.205	-0.000001
-9.200	-0.000026
-9.195	-0.000021
-9.190	-0.000016
-9.185	-0.000026
-9.180	-0.000031
-9.175	-0.000036
-9.170	-0.000021
-9.165	-0.000031
-9.160	-0.000031
-9.155	-0.000031
-9.150	-0.000006
-9.145	-0.000026
-9.140	-0.000026
-9.135	-0.000016
-9.130	-0.000021
-9.125	-0.000006
-9.120	-0.000021
-9.115	-0.000036
-9.110	-0.000016
-9.105	-0.000021
-9.100	-0.000046
-9.095	-0.000021
-9.090	-0.000016
-9.085	-0.000016
-9.080	-0.000006
-9.075	-0.000031
-9.070	-0.000015
-9.065	-0.000006
-9.060	-0.000011
-9.055	-0.000006
-9.050	-0.000025
-9.045	-0.000006
-9.040	-0.000036
-9.035	-0.000020
-9.030	-0.000005
-9.025	-0.000020
-9.020	-0.000000
-9.015	-0.000020
-9.010	-0.000010
-9.005	-0.000005
-9.000	-0.000020
-8.995	-0.000015
-8.990	-0.000000
-8.985	-0.000015
-8.980	-0.000015
-8.975	-0.000030
-8.970	-0.000010
-8.965	-0.000000
-8.960	-0.000015
-8.955	-0.000020
-8.950	-0.000015
-8.945	0.000000
-8.940	-0.000020
-8.935	-0.000015
-8.930	-0.000010
-8.925	-0.000030
-8.920	-0.000025
-8.915	-0.000025
-8.910	0.000000
-8.905	-0.000025
-8.900	-0.000019
-8.895	-0.000024
-8.890	-0.000010
-8.885	0.000000
-8.880	-0.000019
-8.875	-0.000014
-8.870	-0.000034
-8.865	0.000001
-8.860	-0.000029
-8.855	-0.000019
-8.850	-0.000034
-8.845	-0.000019
-8.840	-0.000049
-8.835	-0.000014
-8.830	-0.000009
-8.825	-0.000024
-8.820	-0.000014
-8.815	-0.000028
-8.810	0.000006
-8.805	-0.000028
-8.800	-0.000048
-8.795	-0.000013
-8.790	-0.000028
-8.785	-0.000043
-8.780	-0.000038
-8.775	-0.000038
-8.770	-0.000053
-8.765	-0.000053
-8.760	-0.000018
-8.755	-0.000058
-8.750	-0.000053
-8.745	-0.000078
-8.740	-0.000083
-8.735	-0.000078
-8.730	-0.000093
-8.725	-0.000098
-8.720	-0.000103
-8.715	-0.000137
-8.710	-0.000167
-8.705	-0.000217
-8.700	-0.000435
-8.695	-0.001101
-8.690	-0.003549
-8.685	-0.008961
-8.680	-0.017373
-8.675	-0.027855
-8.670	-0.040816
-8.665	-0.056334
-8.660	-0.075151
-8.655	-0.090154
-8.650	-0.098825
-8.645	-0.103274
-8.640	-0.101836
-8.635	-0.092624
-8.630	-0.077294
-8.625	-0.067247
-8.620	-0.061096
-8.615	-0.056356
-8.610	-0.052721
-8.605	-0.049977
-8.600	-0.047738
-8.595	-0.045828
-8.590	-0.044458
-8.585	-0.043017
-8.580	-0.041347
-8.575	-0.039316
-8.570	-0.038279
-8.565	-0.037521
-8.560	-0.036309
-8.555	-0.035318
-8.550	-0.034434
-8.545	-0.033577
-8.540	-0.032787
-8.535	-0.032081
-8.530	-0.031366
-8.525	-0.030721
-8.520	-0.030130
-8.515	-0.029591
-8.510	-0.029036
-8.505	-0.028558
-8.500	-0.028083
-8.495	-0.027644
-8.490	-0.027187
-8.485	-0.026761
-8.480	-0.026356
-8.475	-0.025936
-8.470	-0.025582
-8.465	-0.025292
-8.460	-0.024978
-8.455	-0.024678
-8.450	-0.024389
-8.445	-0.024099
-8.440	-0.023799
-8.435	-0.023568
-8.430	-0.023245
-8.425	-0.023047
-8.420	-0.022799
-8.415	-0.022605
-8.410	-0.022344
-8.405	-0.022131
-8.400	-0.021889
-8.395	-0.021682
-8.390	-0.021456
-8.385	-0.021288
-8.380	-0.021086
-8.375	-0.020874
-8.370	-0.020717
-8.365	-0.020523
-8.360	-0.020376
-8.355	-0.020191
-8.350	-0.020025
-8.345	-0.019835
-8.340	-0.019704
-8.335	-0.019551
-8.330	-0.019372
-8.325	-0.019249
-8.320	-0.019077
-8.315	-0.018976
-8.310	-0.018803
-8.305	-0.018675
-8.300	-0.018557
-8.295	-0.018409
-8.290	-0.018277
-8.285	-0.018145
-8.280	-0.018050
-8.275	-0.017924
-8.270	-0.017805
-8.265	-0.017673
-8.260	-0.017569
-8.255	-0.017468
-8.250	-0.017331
-8.245	-0.017254
-8.240	-0.017117
-8.235	-0.017019
-8.230	-0.016924
-8.225	-0.016805
-8.220	-0.016722
-8.215	-0.016642
-8.210	-0.016517
-8.205	-0.016442
-8.200	-0.016331
-8.195	-0.016258
-8.190	-0.016150
-8.185	-0.016041
-8.180	-0.015961
-8.175	-0.015880
-8.170	-0.015770
-8.165	-0.015698
-8.160	-0.015617
-8.155	-0.015521
-8.150	-0.015495
-8.145	-0.015377
-8.140	-0.015282
-8.135	-0.015231
-8.130	-0.015132
-8.125	-0.015057
-8.120	-0.014995
-8.115	-0.014887
-8.110	-0.014842
-8.105	-0.014739
-8.100	-0.014669
-8.095	-0.014599
-8.090	-0.014528
-8.085	-0.014455
-8.080	-0.014389
-8.075	-0.014314
-8.070	-0.014246
-8.065	-0.014167
-8.060	-0.014112
-8.055	-0.014027
-8.050	-0.013995
-8.045	-0.013916
-8.040	-0.013862
-8.035	-0.013781
-8.030	-0.013707
-8.025	-0.013665
-8.020	-0.013602
