PK2650 Deflection Data
Z Position (mm)	50.000	W Position (deg)	0.00
Preform ID	Diameter (mm)	Time Stamp	Start Time	Operator	Serial Number
test	18	22-Mar-23 22:58:02	22-Mar-23 23:02:53	[no user]	56941311
Radius (mm)	Deflection
-13.670	0.000002
-13.665	0.000012
-13.660	0.000007
-13.655	0.000012
-13.650	0.000042
-13.645	0.000022
-13.640	0.000012
-13.635	0.000022
-13.630	0.000018
-13.625	0.000018
-13.620	-0.000007
-13.615	0.000037
-13.610	0.000038
-13.605	0.000033
-13.600	0.000008
-13.595	0.000008
-13.590	0.000028
-13.585	0.000018
-13.580	0.000013
-13.575	0.000023
-13.570	0.000023
-13.565	0.000018
-13.560	0.000018
-13.555	0.000023
-13.550	0.000028
-13.545	0.000018
-13.540	0.000003
-13.535	0.000028
-13.530	-0.000002
-13.525	0.000013
-13.520	0.000018
-13.515	0.000008
-13.510	0.000033
-13.505	0.000038
-13.500	0.000043
-13.495	-0.000001
-13.490	0.000023
-13.485	0.000004
-13.480	0.000009
-13.475	0.000053
-13.470	0.000028
-13.465	0.000009
-13.460	0.000034
-13.455	0.000024
-13.450	0.000028
-13.445	0.000024
-13.440	0.000014
-13.435	0.000019
-13.430	0.000019
-13.425	-0.000001
-13.420	0.000029
-13.415	0.000014
-13.410	0.000019
-13.405	0.000004
-13.400	0.000014
-13.395	0.000024
-13.390	0.000009
-13.385	-0.000001
-13.380	0.000009
-13.375	0.000024
-13.370	0.000024
-13.365	0.000009
-13.360	0.000014
-13.355	-0.000011
-13.350	0.000004
-13.345	0.000014
-13.340	-0.000001
-13.335	0.000009
-13.330	0.000004
-13.325	0.000014
-13.320	0.000029
-13.315	0.000004
-13.310	0.000024
-13.305	0.000014
-13.300	0.000024
-13.295	0.000029
-13.290	0.000024
-13.285	0.000014
-13.280	-0.000000
-13.275	0.000010
-13.270	0.000010
-13.265	-0.000005
-13.260	0.000020
-13.255	0.000005
-13.250	-0.000015
-13.245	-0.000025
-13.240	0.000015
-13.235	0.000015
-13.230	0.000010
-13.225	-0.000015
-13.220	0.000005
-13.215	-0.000010
-13.210	-0.000025
-13.205	-0.000030
-13.200	0.000020
-13.195	0.000020
-13.190	-0.000000
-13.185	-0.000000
-13.180	0.000015
-13.175	0.000015
-13.170	-0.000020
-13.165	-0.000015
-13.160	-0.000015
-13.155	-0.000010
-13.150	0.000015
-13.145	-0.000030
-13.140	-0.000005
-13.135	0.000010
-13.130	-0.000005
-13.125	-0.000010
-13.120	-0.000034
-13.115	-0.000010
-13.110	-0.000010
-13.105	-0.000040
-13.100	-0.000005
-13.095	-0.000024
-13.090	-0.000005
-13.085	-0.000010
-13.080	-0.000005
-13.075	0.000005
-13.070	-0.000010
-13.065	-0.000009
-13.060	-0.000014
-13.055	0.000006
-13.050	-0.000004
-13.045	0.000001
-13.040	0.000016
-13.035	0.000001
-13.030	-0.000009
-13.025	0.000021
-13.020	-0.000004
-13.015	-0.000009
-13.010	-0.000029
-13.005	0.000001
-13.000	0.000021
-12.995	-0.000014
-12.990	0.000001
-12.985	0.000001
-12.980	0.000016
-12.975	0.000006
-12.970	-0.000004
-12.965	0.000001
-12.960	-0.000019
-12.955	0.000001
-12.950	0.000026
-12.945	-0.000014
-12.940	0.000011
-12.935	-0.000023
-12.930	0.000006
-12.925	-0.000014
-12.920	0.000006
-12.915	0.000006
-12.910	-0.000019
-12.905	0.000011
-12.900	-0.000004
-12.895	-0.000018
-12.890	-0.000009
-12.885	-0.000018
-12.880	-0.000018
-12.875	0.000007
-12.870	-0.000013
-12.865	0.000012
-12.860	-0.000003
-12.855	0.000002
-12.850	0.000012
-12.845	0.000002
-12.840	-0.000003
-12.835	-0.000008
-12.830	-0.000008
-12.825	0.000002
-12.820	-0.000013
-12.815	-0.000013
-12.810	-0.000018
-12.805	0.000002
-12.800	-0.000013
-12.795	-0.000038
-12.790	-0.000018
-12.785	-0.000013
-12.780	-0.000013
-12.775	-0.000013
-12.770	-0.000013
-12.765	-0.000018
-12.760	-0.000028
-12.755	-0.000028
-12.750	-0.000013
-12.745	-0.000008
-12.740	-0.000038
-12.735	-0.000028
-12.730	-0.000013
-12.725	-0.000013
-12.720	-0.000033
-12.715	0.000012
-12.710	0.000111
-12.705	0.000171
-12.700	0.000146
-12.695	0.000161
-12.690	0.000156
-12.685	0.000186
-12.680	0.000200
-12.675	0.000200
-12.670	0.000166
-12.665	0.000171
-12.660	0.000156
-12.655	0.000146
-12.650	0.000131
-12.645	0.000136
-12.640	0.000156
-12.635	0.000121
-12.630	0.000101
-12.625	0.000086
-12.620	0.000077
-12.615	0.000072
-12.610	0.000032
-12.605	0.000027
-12.600	0.000017
-12.595	-0.000017
-12.590	-0.000037
-12.585	-0.000037
-12.580	-0.000132
-12.575	-0.000116
-12.570	-0.000052
-12.565	-0.000047
-12.560	-0.000052
-12.555	-0.000007
-12.550	-0.000007
-12.545	-0.000017
-12.540	-0.000027
-12.535	0.000013
-12.530	-0.000022
-12.525	-0.000002
-12.520	-0.000002
-12.515	-0.000032
-12.510	-0.000012
-12.505	-0.000031
-12.500	-0.000032
-12.495	-0.000022
-12.490	-0.000026
-12.485	0.000003
-12.480	0.000008
-12.475	-0.000012
-12.470	-0.000021
-12.465	0.000003
-12.460	0.000003
-12.455	-0.000016
-12.450	-0.000006
-12.445	-0.000011
-12.440	-0.000021
-12.435	-0.000021
-12.430	-0.000031
-12.425	-0.000016
-12.420	-0.000041
-12.415	-0.000016
-12.410	-0.000006
-12.405	-0.000031
-12.400	-0.000021
-12.395	-0.000016
-12.390	-0.000011
-12.385	-0.000016
-12.380	-0.000021
-12.375	-0.000031
-12.370	0.000019
-12.365	-0.000026
-12.360	-0.000026
-12.355	-0.000016
-12.350	-0.000016
-12.345	-0.000021
-12.340	-0.000021
-12.335	-0.000016
-12.330	-0.000016
-12.325	-0.000016
-12.320	-0.000026
-12.315	-0.000011
-12.310	-0.000006
-12.305	-0.000036
-12.300	-0.000046
-12.295	-0.000001
-12.290	-0.000016
-12.285	-0.000020
-12.280	-0.000021
-12.275	-0.000016
-12.270	-0.000015
-12.265	-0.000005
-12.260	-0.000025
-12.255	-0.000025
-12.250	-0.000005
-12.245	-0.000010
-12.240	-0.000021
-12.235	-0.000035
-12.230	-0.000015
-12.225	-0.000005
-12.220	-0.000025
-12.215	-0.000030
-12.210	-0.000040
-12.205	-0.000020
-12.200	-0.000050
-12.195	-0.000015
-12.190	-0.000010
-12.185	0.000010
-12.180	-0.000011
-12.175	-0.000040
-12.170	-0.000005
-12.165	-0.000015
-12.160	-0.000025
-12.155	-0.000025
-12.150	-0.000010
-12.145	-0.000000
-12.140	-0.000015
-12.135	-0.000005
-12.130	-0.000020
-12.125	-0.000005
-12.120	-0.000030
-12.115	-0.000045
-12.110	-0.000015
-12.105	-0.000005
-12.100	-0.000035
-12.095	-0.000040
-12.090	-0.000020
-12.085	-0.000020
-12.080	-0.000035
-12.075	-0.000020
-12.070	-0.000020
-12.065	-0.000030
-12.060	-0.000040
-12.055	-0.000025
-12.050	-0.000015
-12.045	-0.000015
-12.040	-0.000035
-12.035	-0.000025
-12.030	0.000000
-12.025	-0.000010
-12.020	-0.000030
-12.015	-0.000020
-12.010	-0.000020
-12.005	-0.000015
-12.000	-0.000025
-11.995	-0.000025
-11.990	-0.000020
-11.985	-0.000020
-11.980	0.000000
-11.975	-0.000044
-11.970	-0.000024
-11.965	-0.000024
-11.960	-0.000024
-11.955	-0.000014
-11.950	-0.000009
-11.945	-0.000039
-11.940	-0.000019
-11.935	-0.000024
-11.930	-0.000014
-11.925	-0.000024
-11.920	-0.000024
-11.915	-0.000034
-11.910	-0.000004
-11.905	-0.000019
-11.900	-0.000024
-11.895	-0.000029
-11.890	-0.000019
-11.885	-0.000014
-11.880	-0.000034
-11.875	-0.000019
-11.870	-0.000014
-11.865	-0.000019
-11.860	-0.000034
-11.855	-0.000009
-11.850	-0.000014
-11.845	0.000001
-11.840	-0.000029
-11.835	-0.000049
-11.830	-0.000019
-11.825	0.000001
-11.820	-0.000039
-11.815	-0.000019
-11.810	-0.000024
-11.805	-0.000024
-11.800	-0.000004
-11.795	-0.000014
-11.790	0.000026
-11.785	-0.000004
-11.780	-0.000024
-11.775	-0.000018
-11.770	-0.000028
-11.765	-0.000008
-11.760	-0.000014
-11.755	-0.000013
-11.750	-0.000023
-11.745	-0.000018
-11.740	-0.000028
-11.735	-0.000004
-11.730	-0.000018
-11.725	-0.000018
-11.720	-0.000038
-11.715	-0.000013
-11.710	-0.000023
-11.705	-0.000023
-11.700	-0.000018
-11.695	0.000002
-11.690	-0.000013
-11.685	-0.000008
-11.680	-0.000008
-11.675	0.000007
-11.670	-0.000008
-11.665	-0.000008
-11.660	-0.000023
-11.655	0.000007
-11.650	-0.000003
-11.645	-0.000017
-11.640	-0.000008
-11.635	0.000012
-11.630	-0.000003
-11.625	-0.000008
-11.620	-0.000008
-11.615	0.000012
-11.610	-0.000012
-11.605	-0.000017
-11.600	-0.000022
-11.595	-0.000037
-11.590	-0.000002
-11.585	0.000003
-11.580	-0.000007
-11.575	-0.000007
-11.570	-0.000007
-11.565	0.000003
-11.560	-0.000007
-11.555	-0.000002
-11.550	-0.000027
-11.545	-0.000027
-11.540	-0.000022
-11.535	-0.000022
-11.530	-0.000017
-11.525	-0.000037
-11.520	-0.000002
-11.515	-0.000017
-11.510	0.000002
-11.505	-0.000032
-11.500	-0.000027
-11.495	-0.000037
-11.490	-0.000032
-11.485	-0.000007
-11.480	-0.000017
-11.475	-0.000027
-11.470	-0.000037
-11.465	-0.000017
-11.460	0.000008
-11.455	-0.000032
-11.450	-0.000017
-11.445	-0.000032
-11.440	-0.000042
-11.435	-0.000022
-11.430	-0.000017
-11.425	-0.000012
-11.420	-0.000027
-11.415	-0.000037
-11.410	-0.000032
-11.405	-0.000037
-11.400	-0.000032
-11.395	-0.000027
-11.390	-0.000027
-11.385	-0.000042
-11.380	-0.000042
-11.375	-0.000027
-11.370	-0.000037
-11.365	-0.000012
-11.360	-0.000012
-11.355	0.000003
-11.350	-0.000007
-11.345	-0.000002
-11.340	-0.000012
-11.335	-0.000027
-11.330	-0.000012
-11.325	-0.000022
-11.320	-0.000037
-11.315	0.000013
-11.310	-0.000007
-11.305	0.000003
-11.300	-0.000037
-11.295	-0.000022
-11.290	-0.000031
-11.285	-0.000022
-11.280	-0.000002
-11.275	-0.000022
-11.270	-0.000026
-11.265	-0.000017
-11.260	0.000003
-11.255	-0.000021
-11.250	-0.000011
-11.245	-0.000026
-11.240	-0.000021
-11.235	-0.000011
-11.230	-0.000026
-11.225	-0.000011
-11.220	-0.000031
-11.215	-0.000001
-11.210	-0.000021
-11.205	-0.000036
-11.200	-0.000026
-11.195	-0.000021
-11.190	-0.000016
-11.185	-0.000016
-11.180	-0.000016
-11.175	-0.000026
-11.170	-0.000006
-11.165	-0.000036
-11.160	-0.000016
-11.155	-0.000036
-11.150	-0.000006
-11.145	-0.000021
-11.140	-0.000026
-11.135	-0.000031
-11.130	-0.000016
-11.125	-0.000021
-11.120	-0.000001
-11.115	-0.000056
-11.110	-0.000011
-11.105	-0.000016
-11.100	-0.000031
-11.095	-0.000026
-11.090	-0.000026
-11.085	-0.000016
-11.080	-0.000041
-11.075	-0.000016
-11.070	-0.000026
-11.065	-0.000006
-11.060	-0.000021
-11.055	-0.000021
-11.050	-0.000005
-11.045	-0.000020
-11.040	-0.000021
-11.035	-0.000006
-11.030	-0.000010
-11.025	-0.000015
-11.020	-0.000035
-11.015	-0.000015
-11.010	0.000015
-11.005	0.000015
-11.000	-0.000005
-10.995	-0.000000
-10.990	0.000010
-10.985	0.000005
-10.980	-0.000000
-10.975	0.000015
-10.970	0.000010
-10.965	0.000005
-10.960	0.000010
-10.955	0.000010
-10.950	0.000010
-10.945	0.000005
-10.940	-0.000020
-10.935	-0.000015
-10.930	0.000005
-10.925	0.000015
-10.920	0.000005
-10.915	0.000000
-10.910	0.000020
-10.905	0.000010
-10.900	-0.000015
-10.895	0.000005
-10.890	-0.000004
-10.885	0.000010
-10.880	-0.000009
-10.875	0.000006
-10.870	0.000016
-10.865	-0.000004
-10.860	-0.000004
-10.855	-0.000009
-10.850	0.000006
-10.845	0.000021
-10.840	0.000001
-10.835	0.000011
-10.830	0.000021
-10.825	0.000006
-10.820	-0.000014
-10.815	0.000016
-10.810	0.000001
-10.805	0.000031
-10.800	0.000016
-10.795	0.000006
-10.790	0.000006
-10.785	0.000001
-10.780	0.000031
-10.775	0.000026
-10.770	0.000006
-10.765	0.000016
-10.760	0.000021
-10.755	0.000026
-10.750	0.000011
-10.745	0.000006
-10.740	0.000011
-10.735	0.000026
-10.730	0.000031
-10.725	0.000011
-10.720	0.000012
-10.715	0.000016
-10.710	0.000016
-10.705	0.000011
-10.700	0.000026
-10.695	-0.000013
-10.690	0.000011
-10.685	-0.000003
-10.680	0.000032
-10.675	0.000021
-10.670	0.000011
-10.665	-0.000003
-10.660	0.000027
-10.655	0.000027
-10.650	-0.000003
-10.645	0.000007
-10.640	0.000012
-10.635	0.000012
-10.630	0.000027
-10.625	0.000007
-10.620	0.000002
-10.615	0.000012
-10.610	0.000027
-10.605	0.000017
-10.600	0.000007
-10.595	0.000017
-10.590	0.000002
-10.585	0.000007
-10.580	0.000042
-10.575	0.000002
-10.570	0.000012
-10.565	0.000037
-10.560	-0.000003
-10.555	0.000032
-10.550	0.000012
-10.545	0.000017
-10.540	0.000002
-10.535	0.000007
-10.530	0.000007
-10.525	0.000012
-10.520	0.000002
-10.515	0.000032
-10.510	0.000012
-10.505	0.000012
-10.500	0.000008
-10.495	0.000013
-10.490	-0.000012
-10.485	0.000008
-10.480	0.000017
-10.475	0.000022
-10.470	0.000013
-10.465	0.000023
-10.460	-0.000017
-10.455	0.000023
-10.450	0.000018
-10.445	0.000023
-10.440	0.000018
-10.435	0.000023
-10.430	0.000018
-10.425	0.000038
-10.420	0.000013
-10.415	0.000013
-10.410	0.000003
-10.405	0.000003
-10.400	0.000008
-10.395	0.000003
-10.390	0.000008
-10.385	0.000028
-10.380	-0.000002
-10.375	0.000043
-10.370	0.000018
-10.365	0.000033
-10.360	0.000028
-10.355	0.000013
-10.350	0.000008
-10.345	0.000023
-10.340	0.000013
-10.335	0.000033
-10.330	0.000028
-10.325	0.000033
-10.320	0.000008
-10.315	0.000018
-10.310	0.000023
-10.305	0.000038
-10.300	0.000013
-10.295	0.000023
-10.290	0.000013
-10.285	0.000018
-10.280	-0.000011
-10.275	0.000033
-10.270	0.000003
-10.265	0.000014
-10.260	0.000014
-10.255	0.000014
-10.250	0.000043
-10.245	0.000028
-10.240	0.000033
-10.235	0.000029
-10.230	0.000023
-10.225	0.000009
-10.220	0.000019
-10.215	0.000024
-10.210	0.000009
-10.205	0.000024
-10.200	0.000014
-10.195	0.000024
-10.190	0.000019
-10.185	0.000009
-10.180	0.000004
-10.175	0.000014
-10.170	0.000029
-10.165	0.000019
-10.160	0.000014
-10.155	-0.000006
-10.150	0.000009
-10.145	0.000014
-10.140	-0.000011
-10.135	0.000019
-10.130	-0.000001
-10.125	0.000019
-10.120	0.000004
-10.115	-0.000006
-10.110	0.000024
-10.105	0.000019
-10.100	0.000029
-10.095	-0.000001
-10.090	0.000019
-10.085	0.000004
-10.080	0.000034
-10.075	0.000004
-10.070	0.000014
-10.065	0.000010
-10.060	0.000004
-10.055	0.000014
-10.050	0.000039
-10.045	0.000015
-10.040	0.000019
-10.035	0.000024
-10.030	0.000029
-10.025	0.000020
-10.020	0.000010
-10.015	0.000025
-10.010	0.000035
-10.005	0.000025
-10.000	0.000010
-9.995	0.000015
-9.990	0.000020
-9.985	0.000015
-9.980	0.000030
-9.975	0.000060
-9.970	0.000015
-9.965	0.000015
-9.960	0.000025
-9.955	0.000020
-9.950	0.000020
-9.945	0.000010
-9.940	0.000025
-9.935	0.000015
-9.930	-0.000010
-9.925	0.000005
-9.920	0.000040
-9.915	0.000005
-9.910	0.000005
-9.905	0.000030
-9.900	0.000005
-9.895	0.000020
-9.890	0.000025
-9.885	0.000000
-9.880	0.000010
-9.875	0.000020
-9.870	0.000030
-9.865	-0.000005
-9.860	0.000005
-9.855	0.000005
-9.850	0.000005
-9.845	0.000020
-9.840	0.000010
-9.835	0.000020
-9.830	0.000005
-9.825	0.000005
-9.820	0.000025
-9.815	0.000000
-9.810	-0.000005
-9.805	0.000025
-9.800	-0.000014
-9.795	-0.000004
-9.790	-0.000010
-9.785	0.000005
-9.780	0.000001
-9.775	0.000011
-9.770	0.000000
-9.765	0.000020
-9.760	0.000011
-9.755	0.000016
-9.750	-0.000009
-9.745	-0.000004
-9.740	-0.000004
-9.735	-0.000004
-9.730	-0.000004
-9.725	0.000026
-9.720	-0.000004
-9.715	0.000016
-9.710	0.000006
-9.705	-0.000009
-9.700	-0.000004
-9.695	0.000021
-9.690	0.000016
-9.685	-0.000014
-9.680	0.000001
-9.675	-0.000014
-9.670	0.000026
-9.665	0.000001
-9.660	0.000006
-9.655	0.000016
-9.650	0.000016
-9.645	0.000001
-9.640	0.000006
-9.635	0.000006
-9.630	0.000016
-9.625	0.000001
-9.620	0.000006
-9.615	0.000001
-9.610	0.000006
-9.605	0.000016
-9.600	-0.000004
-9.595	0.000006
-9.590	0.000022
-9.585	0.000007
-9.580	-0.000003
-9.575	0.000022
-9.570	0.000012
-9.565	0.000022
-9.560	-0.000013
-9.555	0.000022
-9.550	-0.000003
-9.545	0.000002
-9.540	-0.000023
-9.535	-0.000003
-9.530	0.000032
-9.525	0.000032
-9.520	0.000012
-9.515	0.000022
-9.510	0.000042
-9.505	-0.000002
-9.500	-0.000007
-9.495	0.000002
-9.490	0.000032
-9.485	0.000022
-9.480	0.000017
-9.475	0.000028
-9.470	0.000003
-9.465	0.000008
-9.460	0.000028
-9.455	0.000032
-9.450	-0.000008
-9.445	0.000002
-9.440	0.000022
-9.435	0.000003
-9.430	0.000002
-9.425	0.000022
-9.420	0.000017
-9.415	0.000022
-9.410	0.000003
-9.405	0.000003
-9.400	-0.000007
-9.395	-0.000017
-9.390	0.000008
-9.385	0.000008
-9.380	-0.000002
-9.375	0.000008
-9.370	-0.000002
-9.365	0.000013
-9.360	0.000013
-9.355	0.000013
-9.350	0.000008
-9.345	0.000008
-9.340	-0.000017
-9.335	0.000003
-9.330	0.000018
-9.325	0.000018
-9.320	-0.000012
-9.315	-0.000007
-9.310	-0.000007
-9.305	0.000013
-9.300	0.000013
-9.295	0.000013
-9.290	0.000014
-9.285	0.000008
-9.280	-0.000017
-9.275	0.000013
-9.270	0.000019
-9.265	0.000009
-9.260	-0.000002
-9.255	0.000008
-9.250	0.000009
-9.245	0.000009
-9.240	-0.000012
-9.235	-0.000006
-9.230	-0.000011
-9.225	0.000009
-9.220	0.000018
-9.215	-0.000016
-9.210	-0.000001
-9.205	0.000019
-9.200	-0.000011
-9.195	-0.000011
-9.190	0.000009
-9.185	0.000009
-9.180	-0.000001
-9.175	-0.000016
-9.170	-0.000001
-9.165	-0.000016
-9.160	0.000009
-9.155	0.000019
-9.150	0.000009
-9.145	-0.000006
-9.140	0.000004
-9.135	0.000014
-9.130	-0.000006
-9.125	-0.000006
-9.120	-0.000011
-9.115	-0.000011
-9.110	-0.000006
-9.105	-0.000016
-9.100	-0.000006
-9.095	-0.000001
-9.090	-0.000031
-9.085	-0.000001
-9.080	-0.000020
-9.075	-0.000035
-9.070	-0.000016
-9.065	-0.000021
-9.060	-0.000015
-9.055	-0.000025
-9.050	-0.000020
-9.045	-0.000040
-9.040	-0.000025
-9.035	-0.000005
-9.030	-0.000015
-9.025	-0.000020
-9.020	-0.000005
-9.015	-0.000015
-9.010	-0.000020
-9.005	-0.000010
-9.000	-0.000005
-8.995	-0.000040
-8.990	-0.000005
-8.985	-0.000030
-8.980	-0.000005
-8.975	-0.000015
-8.970	0.000005
-8.965	-0.000010
-8.960	0.000005
-8.955	0.000005
-8.950	-0.000025
-8.945	-0.000015
-8.940	-0.000020
-8.935	-0.000020
-8.930	-0.000020
-8.925	-0.000020
-8.920	0.000001
-8.915	-0.000024
-8.910	-0.000044
-8.905	-0.000005
-8.900	-0.000004
-8.895	0.000001
-8.890	-0.000039
-8.885	-0.000034
-8.880	-0.000029
-8.875	-0.000024
-8.870	-0.000034
-8.865	-0.000024
-8.860	-0.000009
-8.855	-0.000024
-8.850	-0.000054
-8.845	-0.000039
-8.840	-0.000014
-8.835	-0.000024
-8.830	-0.000024
-8.825	-0.000029
-8.820	-0.000029
-8.815	-0.000029
-8.810	-0.000029
-8.805	-0.000044
-8.800	-0.000019
-8.795	-0.000024
-8.790	-0.000039
-8.785	-0.000044
-8.780	-0.000063
-8.775	-0.000039
-8.770	-0.000024
-8.765	-0.000043
-8.760	-0.000023
-8.755	-0.000063
-8.750	-0.000058
-8.745	-0.000053
-8.740	-0.000068
-8.735	-0.000038
-8.730	-0.000043
-8.725	-0.000073
-8.720	-0.000073
-8.715	-0.000063
-8.710	-0.000093
-8.705	-0.000098
-8.700	-0.000132
-8.695	-0.000172
-8.690	-0.000291
-8.685	-0.000840
-8.680	-0.002757
-8.675	-0.007343
-8.670	-0.014744
-8.665	-0.024301
-8.660	-0.035800
-8.655	-0.048418
-8.650	-0.063212
-8.645	-0.079905
-8.640	-0.091443
-8.635	-0.099496
-8.630	-0.100299
-8.625	-0.097966
-8.620	-0.086249
-8.615	-0.072432
-8.610	-0.064146
-8.605	-0.058365
-8.600	-0.054541
-8.595	-0.051136
-8.590	-0.048913
-8.585	-0.046799
-8.580	-0.045165
-8.575	-0.043916
-8.570	-0.042362
-8.565	-0.040908
-8.560	-0.039592
-8.555	-0.038342
-8.550	-0.037146
-8.545	-0.036121
-8.540	-0.035138
-8.535	-0.034266
-8.530	-0.033417
-8.525	-0.032704
-8.520	-0.031977
-8.515	-0.031288
-8.510	-0.030630
-8.505	-0.030021
-8.500	-0.029464
-8.495	-0.028940
-8.490	-0.028431
-8.485	-0.027951
-8.480	-0.027503
-8.475	-0.027065
-8.470	-0.026662
-8.465	-0.026267
-8.460	-0.025878
-8.455	-0.025509
-8.450	-0.025172
-8.445	-0.024826
-8.440	-0.024491
-8.435	-0.024226
-8.430	-0.023928
-8.425	-0.023647
-8.420	-0.023382
-8.415	-0.023145
-8.410	-0.022866
-8.405	-0.022633
-8.400	-0.022386
-8.395	-0.022184
-8.390	-0.021951
-8.385	-0.021744
-8.380	-0.021552
-8.375	-0.021371
-8.370	-0.021147
-8.365	-0.020972
-8.360	-0.020774
-8.355	-0.020626
-8.350	-0.020454
-8.345	-0.020326
-8.340	-0.020104
-8.335	-0.019944
-8.330	-0.019753
-8.325	-0.019586
-8.320	-0.019463
-8.315	-0.019277
-8.310	-0.019136
-8.305	-0.019010
-8.300	-0.018850
-8.295	-0.018763
-8.290	-0.018604
-8.285	-0.018457
-8.280	-0.018315
-8.275	-0.018185
-8.270	-0.018076
-8.265	-0.017951
-8.260	-0.017818
-8.255	-0.017707
-8.250	-0.017586
-8.245	-0.017481
-8.240	-0.017379
-8.235	-0.017270
-8.230	-0.017170
-8.225	-0.017038
-8.220	-0.016970
-8.215	-0.016858
-8.210	-0.016724
-8.205	-0.016628
-8.200	-0.016538
-8.195	-0.016453
-8.190	-0.016345
-8.185	-0.016266
-8.180	-0.016164
-8.175	-0.016044
-8.170	-0.015963
-8.165	-0.015874
-8.160	-0.015774
-8.155	-0.015694
-8.150	-0.015633
-8.145	-0.015513
-8.140	-0.015438
-8.135	-0.015342
-8.130	-0.015254
-8.125	-0.015189
-8.120	-0.015104
-8.115	-0.015008
-8.110	-0.014972
-8.105	-0.014868
-8.100	-0.014776
-8.095	-0.014737
-8.090	-0.014661
-8.085	-0.014564
-8.080	-0.014529
-8.075	-0.014422
-8.070	-0.014369
-8.065	-0.014318
-8.060	-0.014232
-8.055	-0.014159
-8.050	-0.014107
-8.045	-0.014053
-8.040	-0.013970
-8.035	-0.013911
-8.030	-0.013851
-8.025	-0.013783
-8.020	-0.013743
-8.015	-0.013674
-8.010	-0.013592
-8.005	-0.013515
-8.000	-0.013477
-7.995	-0.013428
-7.990	-0.013358
-7.985	-0.013334
-7.980	-0.013248
-7.975	-0.013188
-7.970	-0.013144
-7.965	-0.013100
-7.960	-0.013029
-7.955	-0.012993
-7.950	-0.012957
-7.945	-0.012919
-7.940	-0.012870
