PK2650 Deflection Data
Z Position (mm)	105.000	W Position (deg)	144.00
Preform ID	Diameter (mm)	Time Stamp	Start Time	Operator	Serial Number
Test 1	25	03-Nov-22 18:05:01	03-Nov-22 18:06:59	[no user]	266007708
Radius (mm)	Deflection
-26.280	0.000010
-26.275	-0.000024
-26.270	-0.000010
-26.265	-0.000024
-26.260	0.000003
-26.255	-0.000024
-26.250	-0.000010
-26.245	0.000017
-26.240	0.000030
-26.235	-0.000018
-26.230	-0.000031
-26.225	0.000016
-26.220	0.000010
-26.215	-0.000004
-26.210	-0.000004
-26.205	0.000010
-26.200	0.000003
-26.195	-0.000004
-26.190	0.000003
-26.185	-0.000004
-26.180	0.000010
-26.175	-0.000004
-26.170	-0.000004
-26.165	-0.000025
-26.160	0.000002
-26.155	0.000036
-26.150	0.000023
-26.145	0.000023
-26.140	0.000023
-26.135	-0.000005
-26.130	-0.000011
-26.125	-0.000025
-26.120	-0.000018
-26.115	-0.000018
-26.110	0.000009
-26.105	-0.000005
-26.100	0.000036
-26.095	0.000029
-26.090	0.000009
-26.085	0.000009
-26.080	0.000049
-26.075	0.000022
-26.070	0.000002
-26.065	0.000009
-26.060	0.000015
-26.055	0.000008
-26.050	-0.000012
-26.045	-0.000018
-26.040	0.000009
-26.035	-0.000026
-26.030	0.000001
-26.025	0.000015
-26.020	0.000022
-26.015	-0.000005
-26.010	-0.000006
-26.005	0.000015
-26.000	0.000015
-25.995	-0.000020
-25.990	0.000014
-25.985	-0.000013
-25.980	0.000008
-25.975	0.000001
-25.970	0.000001
-25.965	0.000001
-25.960	0.000028
-25.955	0.000035
-25.950	0.000015
-25.945	-0.000013
-25.940	0.000014
-25.935	0.000008
-25.930	-0.000006
-25.925	-0.000006
-25.920	-0.000006
-25.915	-0.000006
-25.910	-0.000026
-25.905	0.000001
-25.900	-0.000013
-25.895	0.000000
-25.890	0.000000
-25.885	0.000014
-25.880	0.000014
-25.875	-0.000013
-25.870	-0.000007
-25.865	0.000041
-25.860	0.000000
-25.855	0.000000
-25.850	0.000007
-25.845	0.000007
-25.840	-0.000020
-25.835	-0.000007
-25.830	0.000007
-25.825	0.000014
-25.820	0.000014
-25.815	0.000014
-25.810	0.000000
-25.805	-0.000007
-25.800	-0.000000
-25.795	0.000013
-25.790	-0.000021
-25.785	-0.000027
-25.780	-0.000006
-25.775	-0.000007
-25.770	-0.000020
-25.765	0.000007
-25.760	0.000027
-25.755	-0.000007
-25.750	-0.000021
-25.745	-0.000014
-25.740	-0.000007
-25.735	-0.000000
-25.730	0.000013
-25.725	-0.000007
-25.720	-0.000007
-25.715	-0.000007
-25.710	-0.000000
-25.705	0.000006
-25.700	0.000013
-25.695	0.000013
-25.690	0.000033
-25.685	-0.000001
-25.680	0.000006
-25.675	-0.000014
-25.670	0.000020
-25.665	-0.000001
-25.660	0.000033
-25.655	0.000019
-25.650	-0.000028
-25.645	0.000020
-25.640	-0.000000
-25.635	0.000019
-25.630	-0.000008
-25.625	-0.000014
-25.620	0.000033
-25.615	0.000019
-25.610	0.000006
-25.605	-0.000001
-25.600	-0.000008
-25.595	-0.000001
-25.590	-0.000015
-25.585	-0.000021
-25.580	0.000013
-25.575	-0.000001
-25.570	0.000012
-25.565	0.000033
-25.560	0.000006
-25.555	0.000033
-25.550	0.000012
-25.545	0.000019
-25.540	0.000012
-25.535	0.000005
-25.530	-0.000001
-25.525	-0.000008
-25.520	0.000005
-25.515	-0.000021
-25.510	0.000026
-25.505	0.000033
-25.500	0.000025
-25.495	0.000005
-25.490	0.000005
-25.485	0.000025
-25.480	0.000012
-25.475	0.000005
-25.470	-0.000009
-25.465	-0.000009
-25.460	0.000019
-25.455	-0.000015
-25.450	-0.000029
-25.445	-0.000015
-25.440	-0.000022
-25.435	0.000005
-25.430	-0.000029
-25.425	-0.000002
-25.420	0.000039
-25.415	0.000025
-25.410	-0.000009
-25.405	0.000005
-25.400	-0.000029
-25.395	-0.000022
-25.390	-0.000002
-25.385	0.000005
-25.380	0.000026
-25.375	0.000012
-25.370	0.000012
-25.365	-0.000002
-25.360	0.000025
-25.355	-0.000016
-25.350	0.000018
-25.345	0.000025
-25.340	-0.000009
-25.335	-0.000003
-25.330	-0.000030
-25.325	-0.000023
-25.320	-0.000009
-25.315	0.000005
-25.310	-0.000009
-25.305	0.000004
-25.300	0.000011
-25.295	0.000045
-25.290	0.000011
-25.285	0.000031
-25.280	0.000018
-25.275	-0.000002
-25.270	0.000025
-25.265	0.000018
-25.260	0.000004
-25.255	-0.000016
-25.250	-0.000002
-25.245	-0.000036
-25.240	0.000004
-25.235	0.000011
-25.230	0.000011
-25.225	0.000004
-25.220	0.000018
-25.215	0.000045
-25.210	0.000011
-25.205	0.000011
-25.200	-0.000010
-25.195	-0.000023
-25.190	0.000011
-25.185	-0.000030
-25.180	-0.000023
-25.175	-0.000003
-25.170	0.000017
-25.165	-0.000010
-25.160	0.000017
-25.155	0.000004
-25.150	-0.000003
-25.145	0.000017
-25.140	0.000010
-25.135	0.000010
-25.130	0.000004
-25.125	0.000003
-25.120	0.000003
-25.115	-0.000010
-25.110	-0.000003
-25.105	-0.000003
-25.100	0.000003
-25.095	0.000037
-25.090	0.000017
-25.085	0.000024
-25.080	0.000017
-25.075	0.000010
-25.070	-0.000010
-25.065	-0.000031
-25.060	0.000010
-25.055	0.000010
-25.050	0.000037
-25.045	-0.000017
-25.040	0.000017
-25.035	-0.000010
-25.030	0.000023
-25.025	0.000024
-25.020	0.000030
-25.015	0.000017
-25.010	0.000010
-25.005	0.000010
-25.000	0.000003
-24.995	0.000023
-24.990	-0.000038
-24.985	0.000010
-24.980	0.000003
-24.975	0.000003
-24.970	0.000010
-24.965	0.000016
-24.960	0.000010
-24.955	0.000003
-24.950	-0.000004
-24.945	0.000010
-24.940	-0.000004
-24.935	-0.000025
-24.930	0.000003
-24.925	-0.000004
-24.920	-0.000011
-24.915	-0.000004
-24.910	0.000017
-24.905	-0.000004
-24.900	0.000003
-24.895	0.000010
-24.890	0.000003
-24.885	0.000037
-24.880	0.000016
-24.875	0.000023
-24.870	-0.000004
-24.865	0.000016
-24.860	0.000016
-24.855	-0.000018
-24.850	0.000003
-24.845	-0.000004
-24.840	0.000010
-24.835	-0.000011
-24.830	0.000030
-24.825	0.000002
-24.820	0.000016
-24.815	0.000029
-24.810	0.000030
-24.805	-0.000004
-24.800	-0.000005
-24.795	0.000002
-24.790	-0.000011
-24.785	-0.000018
-24.780	-0.000011
-24.775	0.000016
-24.770	-0.000005
-24.765	0.000002
-24.760	0.000030
-24.755	0.000030
-24.750	0.000009
-24.745	0.000002
-24.740	0.000036
-24.735	0.000002
-24.730	0.000002
-24.725	-0.000018
-24.720	-0.000005
-24.715	0.000009
-24.710	-0.000004
-24.705	0.000023
-24.700	0.000009
-24.695	0.000029
-24.690	-0.000005
-24.685	0.000002
-24.680	0.000036
-24.675	0.000022
-24.670	-0.000012
-24.665	0.000002
-24.660	0.000009
-24.655	-0.000019
-24.650	0.000002
-24.645	0.000029
-24.640	0.000022
-24.635	0.000015
-24.630	0.000029
-24.625	0.000015
-24.620	0.000036
-24.615	0.000022
-24.610	0.000036
-24.605	0.000022
-24.600	0.000029
-24.595	0.000008
-24.590	0.000015
-24.585	0.000008
-24.580	0.000009
-24.575	0.000049
-24.570	0.000001
-24.565	0.000049
-24.560	0.000015
-24.555	-0.000012
-24.550	-0.000005
-24.545	0.000022
-24.540	-0.000012
-24.535	0.000015
-24.530	0.000001
-24.525	-0.000012
-24.520	0.000028
-24.515	0.000029
-24.510	0.000015
-24.505	-0.000006
-24.500	0.000028
-24.495	0.000049
-24.490	0.000042
-24.485	0.000028
-24.480	0.000029
-24.475	0.000008
-24.470	0.000022
-24.465	0.000042
-24.460	0.000015
-24.455	-0.000013
-24.450	0.000008
-24.445	0.000002
-24.440	-0.000005
-24.435	0.000015
-24.430	0.000015
-24.425	0.000001
-24.420	0.000015
-24.415	0.000048
-24.410	0.000028
-24.405	0.000008
-24.400	0.000008
-24.395	-0.000013
-24.390	-0.000006
-24.385	0.000028
-24.380	-0.000012
-24.375	0.000028
-24.370	0.000021
-24.365	0.000014
-24.360	0.000048
-24.355	0.000062
-24.350	0.000021
-24.345	0.000028
-24.340	-0.000027
-24.335	0.000021
-24.330	0.000028
-24.325	-0.000013
-24.320	0.000014
-24.315	-0.000019
-24.310	0.000042
-24.305	0.000021
-24.300	0.000014
-24.295	0.000034
-24.290	0.000041
-24.285	0.000021
-24.280	0.000041
-24.275	0.000014
-24.270	0.000027
-24.265	-0.000000
-24.260	0.000027
-24.255	0.000020
-24.250	0.000000
-24.245	0.000014
-24.240	0.000020
-24.235	0.000020
-24.230	0.000034
-24.225	0.000020
-24.220	0.000054
-24.215	0.000027
-24.210	-0.000007
-24.205	0.000041
-24.200	0.000020
-24.195	0.000020
-24.190	0.000034
-24.185	0.000020
-24.180	0.000021
-24.175	0.000007
-24.170	0.000061
-24.165	0.000054
-24.160	0.000068
-24.155	0.000027
-24.150	0.000047
-24.145	0.000020
-24.140	0.000040
-24.135	0.000013
-24.130	0.000026
-24.125	0.000026
-24.120	0.000040
-24.115	0.000041
-24.110	0.000040
-24.105	0.000020
-24.100	-0.000008
-24.095	0.000013
-24.090	0.000020
-24.085	0.000020
-24.080	0.000006
-24.075	0.000013
-24.070	0.000026
-24.065	0.000013
-24.060	-0.000001
-24.055	0.000013
-24.050	-0.000001
-24.045	0.000027
-24.040	0.000006
-24.035	0.000033
-24.030	0.000019
-24.025	0.000026
-24.020	0.000013
-24.015	0.000033
-24.010	0.000033
-24.005	0.000060
-24.000	0.000012
-23.995	0.000005
-23.990	-0.000002
-23.985	0.000033
-23.980	-0.000001
-23.975	0.000039
-23.970	0.000032
-23.965	0.000053
-23.960	0.000033
-23.955	0.000026
-23.950	-0.000002
-23.945	0.000019
-23.940	0.000019
-23.935	0.000019
-23.930	-0.000015
-23.925	0.000012
-23.920	0.000018
-23.915	0.000012
-23.910	0.000026
-23.905	-0.000009
-23.900	0.000025
-23.895	0.000011
-23.890	0.000046
-23.885	-0.000002
-23.880	0.000025
-23.875	0.000038
-23.870	-0.000002
-23.865	-0.000009
-23.860	-0.000023
-23.855	-0.000030
-23.850	0.000018
-23.845	-0.000016
-23.840	0.000011
-23.835	0.000018
-23.830	-0.000009
-23.825	0.000038
-23.820	0.000025
-23.815	0.000025
-23.810	0.000011
-23.805	0.000052
-23.800	-0.000016
-23.795	0.000011
-23.790	0.000011
-23.785	-0.000016
-23.780	-0.000016
-23.775	-0.000002
-23.770	0.000004
-23.765	0.000018
-23.760	0.000011
-23.755	0.000038
-23.750	-0.000010
-23.745	-0.000003
-23.740	-0.000010
-23.735	-0.000003
-23.730	-0.000003
-23.725	-0.000003
-23.720	0.000011
-23.715	0.000004
-23.710	-0.000010
-23.705	-0.000010
-23.700	0.000031
-23.695	0.000051
-23.690	0.000004
-23.685	0.000017
-23.680	-0.000010
-23.675	-0.000017
-23.670	-0.000024
-23.665	0.000010
-23.660	-0.000010
-23.655	0.000017
-23.650	0.000024
-23.645	0.000011
-23.640	0.000024
-23.635	0.000010
-23.630	0.000037
-23.625	0.000037
-23.620	-0.000017
-23.615	0.000003
-23.610	-0.000004
-23.605	-0.000011
-23.600	-0.000031
-23.595	-0.000018
-23.590	-0.000011
-23.585	-0.000017
-23.580	-0.000010
-23.575	-0.000045
-23.570	0.000016
-23.565	-0.000038
-23.560	0.000003
-23.555	0.000003
-23.550	-0.000011
-23.545	-0.000018
-23.540	-0.000018
-23.535	-0.000032
-23.530	-0.000018
-23.525	-0.000052
-23.520	-0.000011
-23.515	-0.000038
-23.510	-0.000031
-23.505	-0.000004
-23.500	-0.000032
-23.495	-0.000038
-23.490	-0.000005
-23.485	-0.000039
-23.480	-0.000066
-23.475	-0.000046
-23.470	-0.000039
-23.465	-0.000039
-23.460	-0.000018
-23.455	-0.000080
-23.450	-0.000059
-23.445	-0.000025
-23.440	0.000002
-23.435	-0.000025
-23.430	-0.000019
-23.425	-0.000025
-23.420	0.000009
-23.415	-0.000019
-23.410	-0.000025
-23.405	-0.000019
-23.400	-0.000053
-23.395	-0.000032
-23.390	-0.000046
-23.385	-0.000012
-23.380	0.000009
-23.375	-0.000032
-23.370	-0.000053
-23.365	-0.000033
-23.360	-0.000026
-23.355	-0.000006
-23.350	-0.000039
-23.345	-0.000012
-23.340	-0.000040
-23.335	-0.000040
-23.330	-0.000026
-23.325	-0.000013
-23.320	-0.000053
-23.315	-0.000026
-23.310	-0.000033
-23.305	-0.000033
-23.300	0.000001
-23.295	-0.000033
-23.290	0.000001
-23.285	-0.000006
-23.280	-0.000006
-23.275	-0.000019
-23.270	-0.000026
-23.265	-0.000006
-23.260	-0.000026
-23.255	0.000001
-23.250	-0.000047
-23.245	-0.000026
-23.240	-0.000006
-23.235	0.000007
-23.230	-0.000006
-23.225	0.000021
-23.220	0.000000
-23.215	0.000000
-23.210	0.000000
-23.205	-0.000020
-23.200	-0.000034
-23.195	-0.000054
-23.190	-0.000034
-23.185	-0.000040
-23.180	0.000001
-23.175	-0.000033
-23.170	-0.000013
-23.165	-0.000013
-23.160	-0.000027
-23.155	0.000007
-23.150	-0.000034
-23.145	-0.000013
-23.140	-0.000013
-23.135	0.000000
-23.130	-0.000020
-23.125	-0.000041
-23.120	-0.000034
-23.115	-0.000033
-23.110	-0.000027
-23.105	0.000000
-23.100	-0.000014
-23.095	-0.000007
-23.090	-0.000000
-23.085	-0.000007
-23.080	-0.000021
-23.075	-0.000007
-23.070	-0.000041
-23.065	-0.000028
-23.060	-0.000014
-23.055	-0.000041
-23.050	-0.000027
-23.045	-0.000014
-23.040	-0.000007
-23.035	-0.000007
-23.030	-0.000007
-23.025	0.000013
-23.020	0.000013
-23.015	-0.000021
-23.010	-0.000041
-23.005	-0.000007
-23.000	-0.000028
-22.995	-0.000028
-22.990	-0.000028
-22.985	-0.000034
-22.980	-0.000007
-22.975	0.000020
-22.970	-0.000001
-22.965	0.000013
-22.960	-0.000008
-22.955	-0.000021
-22.950	0.000006
-22.945	-0.000008
-22.940	-0.000021
-22.935	-0.000028
-22.930	0.000026
-22.925	-0.000021
-22.920	-0.000008
-22.915	-0.000000
-22.910	-0.000014
-22.905	-0.000015
-22.900	0.000026
-22.895	-0.000015
-22.890	0.000013
-22.885	0.000019
-22.880	0.000006
-22.875	-0.000001
-22.870	-0.000001
-22.865	-0.000001
-22.860	0.000012
-22.855	-0.000042
-22.850	-0.000008
-22.845	-0.000028
-22.840	-0.000001
-22.835	-0.000008
-22.830	0.000019
-22.825	0.000026
-22.820	0.000012
-22.815	0.000026
-22.810	-0.000002
-22.805	-0.000002
-22.800	0.000012
-22.795	-0.000049
-22.790	-0.000002
-22.785	-0.000022
-22.780	-0.000001
-22.775	-0.000008
-22.770	-0.000015
-22.765	0.000005
-22.760	-0.000022
-22.755	-0.000002
-22.750	0.000005
-22.745	0.000019
-22.740	0.000012
-22.735	-0.000022
-22.730	0.000005
-22.725	-0.000036
-22.720	-0.000015
-22.715	-0.000001
-22.710	-0.000029
-22.705	0.000012
-22.700	0.000032
-22.695	0.000011
-22.690	0.000011
-22.685	-0.000002
-22.680	0.000018
-22.675	-0.000023
-22.670	-0.000029
-22.665	0.000018
-22.660	0.000018
-22.655	0.000004
-22.650	-0.000009
-22.645	0.000005
-22.640	-0.000023
-22.635	0.000025
-22.630	0.000025
-22.625	0.000011
-22.620	-0.000002
-22.615	0.000004
-22.610	-0.000023
-22.605	-0.000023
-22.600	-0.000030
-22.595	-0.000030
-22.590	-0.000009
-22.585	-0.000030
-22.580	-0.000002
-22.575	-0.000016
-22.570	0.000024
-22.565	0.000004
-22.560	-0.000016
-22.555	-0.000003
-22.550	0.000017
-22.545	0.000004
-22.540	-0.000010
-22.535	0.000017
-22.530	-0.000024
-22.525	-0.000023
-22.520	0.000004
-22.515	-0.000016
-22.510	-0.000023
-22.505	-0.000003
-22.500	-0.000017
-22.495	-0.000010
-22.490	0.000010
-22.485	-0.000003
-22.480	-0.000010
-22.475	-0.000010
-22.470	-0.000003
-22.465	-0.000010
-22.460	-0.000017
-22.455	-0.000038
-22.450	-0.000017
-22.445	-0.000017
-22.440	-0.000010
-22.435	0.000010
-22.430	-0.000031
-22.425	-0.000017
-22.420	-0.000017
-22.415	0.000003
-22.410	-0.000011
-22.405	-0.000011
-22.400	-0.000024
-22.395	-0.000024
-22.390	-0.000018
-22.385	-0.000017
-22.380	-0.000024
-22.375	-0.000024
-22.370	-0.000011
-22.365	-0.000004
-22.360	-0.000018
-22.355	-0.000024
-22.350	-0.000018
-22.345	0.000003
-22.340	-0.000031
-22.335	-0.000004
-22.330	-0.000018
-22.325	-0.000032
-22.320	-0.000018
-22.315	-0.000011
-22.310	-0.000031
-22.305	-0.000004
-22.300	0.000003
-22.295	-0.000025
-22.290	0.000023
-22.285	0.000009
-22.280	-0.000011
-22.275	0.000002
-22.270	-0.000011
-22.265	-0.000012
-22.260	-0.000018
-22.255	-0.000011
-22.250	-0.000059
-22.245	-0.000031
-22.240	-0.000005
-22.235	-0.000018
-22.230	-0.000005
-22.225	-0.000018
-22.220	-0.000011
-22.215	-0.000025
-22.210	-0.000011
-22.205	-0.000018
-22.200	-0.000039
-22.195	-0.000059
-22.190	-0.000046
-22.185	-0.000032
-22.180	-0.000011
-22.175	-0.000011
-22.170	-0.000025
-22.165	-0.000025
-22.160	-0.000005
-22.155	-0.000032
-22.150	-0.000032
-22.145	-0.000032
-22.140	-0.000026
-22.135	-0.000026
-22.130	-0.000012
-22.125	-0.000005
-22.120	-0.000039
-22.115	0.000002
-22.110	-0.000032
-22.105	0.000022
-22.100	0.000015
-22.095	-0.000012
-22.090	0.000015
-22.085	-0.000019
-22.080	-0.000005
-22.075	-0.000032
-22.070	0.000001
-22.065	-0.000040
-22.060	-0.000046
-22.055	-0.000026
-22.050	-0.000032
-22.045	-0.000032
-22.040	0.000008
-22.035	-0.000033
-22.030	-0.000012
-22.025	-0.000012
-22.020	-0.000019
-22.015	-0.000012
-22.010	-0.000026
-22.005	-0.000006
-22.000	-0.000040
-21.995	-0.000040
-21.990	-0.000033
-21.985	-0.000060
-21.980	-0.000033
-21.975	-0.000019
-21.970	-0.000047
-21.965	-0.000020
-21.960	-0.000026
-21.955	-0.000026
-21.950	-0.000013
-21.945	-0.000013
-21.940	0.000001
-21.935	-0.000006
-21.930	-0.000020
-21.925	-0.000033
-21.920	-0.000053
-21.915	-0.000040
-21.910	-0.000019
-21.905	-0.000027
-21.900	-0.000006
-21.895	-0.000033
-21.890	-0.000020
-21.885	-0.000020
-21.880	0.000000
-21.875	-0.000034
-21.870	-0.000027
-21.865	-0.000034
-21.860	-0.000054
-21.855	-0.000034
-21.850	-0.000026
-21.845	-0.000020
-21.840	-0.000034
-21.835	-0.000034
-21.830	-0.000020
-21.825	-0.000013
-21.820	-0.000006
-21.815	-0.000027
-21.810	-0.000034
-21.805	-0.000047
-21.800	-0.000034
-21.795	-0.000027
-21.790	-0.000027
-21.785	-0.000034
-21.780	-0.000047
-21.775	-0.000027
-21.770	-0.000034
-21.765	-0.000034
-21.760	-0.000020
-21.755	-0.000041
-21.750	-0.000014
-21.745	-0.000034
-21.740	-0.000034
-21.735	-0.000034
-21.730	-0.000027
-21.725	-0.000068
-21.720	-0.000041
-21.715	-0.000040
-21.710	-0.000014
-21.705	0.000013
-21.700	-0.000021
-21.695	-0.000028
-21.690	-0.000021
-21.685	-0.000021
-21.680	-0.000014
-21.675	-0.000034
-21.670	-0.000000
-21.665	-0.000014
-21.660	-0.000034
-21.655	-0.000034
-21.650	-0.000054
-21.645	-0.000041
-21.640	-0.000007
-21.635	-0.000007
-21.630	-0.000048
-21.625	-0.000001
-21.620	-0.000041
-21.615	-0.000021
-21.610	-0.000028
-21.605	-0.000035
-21.600	-0.000035
-21.595	-0.000035
-21.590	-0.000028
-21.585	-0.000007
-21.580	-0.000055
-21.575	-0.000001
-21.570	0.000006
-21.565	-0.000001
-21.560	-0.000028
-21.555	0.000013
-21.550	-0.000028
-21.545	0.000013
-21.540	-0.000015
-21.535	-0.000008
-21.530	-0.000035
-21.525	-0.000028
-21.520	-0.000035
-21.515	-0.000034
-21.510	-0.000014
-21.505	0.000012
-21.500	-0.000021
-21.495	0.000019
-21.490	0.000019
-21.485	0.000006
-21.480	-0.000028
-21.475	0.000013
-21.470	0.000026
-21.465	0.000026
-21.460	0.000026
-21.455	0.000040
-21.450	0.000081
-21.445	0.000115
-21.440	0.000231
-21.435	0.000375
-21.430	0.000621
-21.425	0.000951
-21.420	0.001405
-21.415	0.001958
-21.410	0.002777
-21.405	0.003812
-21.400	0.005055
-21.395	0.006587
-21.390	0.008353
-21.385	0.010428
-21.380	0.012845
-21.375	0.015688
-21.370	0.018745
-21.365	0.021997
-21.360	0.025492
-21.355	0.029121
-21.350	0.032800
-21.345	0.036428
-21.340	0.040065
-21.335	0.043755
-21.330	0.047245
-21.325	0.050236
-21.320	0.050581
-21.315	0.049512
-21.310	0.048737
-21.305	0.047034
-21.300	0.045276
-21.295	0.044408
-21.290	0.043581
-21.285	0.042667
-21.280	0.042050
-21.275	0.041622
-21.270	0.040209
-21.265	0.038856
-21.260	0.037996
-21.255	0.037088
-21.250	0.036324
-21.245	0.035868
-21.240	0.035054
-21.235	0.034299
-21.230	0.034116
-21.225	0.033430
-21.220	0.032870
-21.215	0.032381
-21.210	0.031916
-21.205	0.031486
-21.200	0.031147
-21.195	0.030909
-21.190	0.030631
-21.185	0.030510
-21.180	0.029882
-21.175	0.029075
-21.170	0.028615
-21.165	0.028475
-21.160	0.028229
-21.155	0.027714
-21.150	0.027306
-21.145	0.027207
-21.140	0.027216
-21.135	0.027501
-21.130	0.027281
-21.125	0.026258
-21.120	0.025769
-21.115	0.025700
-21.110	0.025516
-21.105	0.025263
-21.100	0.025096
-21.095	0.024957
-21.090	0.024680
-21.085	0.024360
-21.080	0.024090
-21.075	0.023897
-21.070	0.023721
-21.065	0.023465
-21.060	0.023230
-21.055	0.022982
-21.050	0.022822
-21.045	0.022719
-21.040	0.022618
-21.035	0.022460
-21.030	0.022288
-21.025	0.022156
-21.020	0.022015
-21.015	0.021875
-21.010	0.021788
-21.005	0.021699
-21.000	0.021618
-20.995	0.021503
-20.990	0.021336
-20.985	0.021120
-20.980	0.020898
-20.975	0.020803
-20.970	0.020687
-20.965	0.020562
-20.960	0.020412
-20.955	0.020274
-20.950	0.020187
-20.945	0.020064
-20.940	0.019929
-20.935	0.019831
-20.930	0.019693
-20.925	0.019557
-20.920	0.019462
-20.915	0.019369
-20.910	0.019236
-20.905	0.019136
-20.900	0.019045
-20.895	0.018951
-20.890	0.018854
-20.885	0.018731
-20.880	0.018626
-20.875	0.018563
-20.870	0.018463
-20.865	0.018443
-20.860	0.018312
-20.855	0.018225
-20.850	0.018170
-20.845	0.018010
-20.840	0.017914
-20.835	0.017795
-20.830	0.017733
-20.825	0.017627
-20.820	0.017514
-20.815	0.017448
-20.810	0.017329
-20.805	0.017240
-20.800	0.017175
-20.795	0.017118
-20.790	0.017061
-20.785	0.016977
-20.780	0.016950
-20.775	0.016863
-20.770	0.016823
-20.765	0.016756
-20.760	0.016709
-20.755	0.016584
-20.750	0.016527
-20.745	0.016374
-20.740	0.016348
-20.735	0.016287
-20.730	0.016197
-20.725	0.016128
-20.720	0.016045
-20.715	0.015995
-20.710	0.015940
-20.705	0.015871
-20.700	0.015794
-20.695	0.015747
-20.690	0.015672
-20.685	0.015634
-20.680	0.015558
-20.675	0.015514
-20.670	0.015463
-20.665	0.015374
-20.660	0.015366
-20.655	0.015308
-20.650	0.015207
-20.645	0.015193
-20.640	0.015116
-20.635	0.015070
-20.630	0.015045
-20.625	0.014982
