PK2650 Deflection Data
Z Position (mm)	105.000	W Position (deg)	288.00
Preform ID	Diameter (mm)	Time Stamp	Start Time	Operator	Serial Number
Test 1	25	03-Nov-22 18:05:01	03-Nov-22 18:07:20	[no user]	266007708
Radius (mm)	Deflection
-26.250	-0.000022
-26.245	-0.000002
-26.240	0.000012
-26.235	-0.000016
-26.230	0.000012
-26.225	-0.000009
-26.220	0.000011
-26.215	-0.000029
-26.210	-0.000030
-26.205	0.000004
-26.200	-0.000030
-26.195	-0.000002
-26.190	-0.000022
-26.185	-0.000002
-26.180	0.000018
-26.175	-0.000003
-26.170	-0.000016
-26.165	-0.000016
-26.160	-0.000010
-26.155	-0.000037
-26.150	0.000004
-26.145	-0.000051
-26.140	-0.000023
-26.135	-0.000010
-26.130	0.000011
-26.125	-0.000037
-26.120	-0.000016
-26.115	-0.000030
-26.110	-0.000003
-26.105	0.000017
-26.100	0.000024
-26.095	-0.000017
-26.090	-0.000003
-26.085	-0.000030
-26.080	-0.000017
-26.075	-0.000024
-26.070	-0.000037
-26.065	-0.000044
-26.060	-0.000023
-26.055	-0.000030
-26.050	0.000017
-26.045	-0.000017
-26.040	-0.000017
-26.035	-0.000017
-26.030	0.000003
-26.025	-0.000017
-26.020	0.000003
-26.015	-0.000011
-26.010	-0.000011
-26.005	-0.000024
-26.000	-0.000011
-25.995	-0.000037
-25.990	-0.000031
-25.985	0.000003
-25.980	0.000009
-25.975	0.000010
-25.970	-0.000018
-25.965	0.000023
-25.960	0.000016
-25.955	-0.000024
-25.950	0.000010
-25.945	-0.000004
-25.940	-0.000038
-25.935	-0.000011
-25.930	-0.000045
-25.925	-0.000024
-25.920	-0.000011
-25.915	-0.000011
-25.910	0.000030
-25.905	0.000009
-25.900	-0.000004
-25.895	0.000002
-25.890	0.000009
-25.885	-0.000011
-25.880	-0.000032
-25.875	-0.000011
-25.870	-0.000039
-25.865	0.000009
-25.860	0.000016
-25.855	-0.000018
-25.850	-0.000018
-25.845	-0.000012
-25.840	-0.000005
-25.835	0.000009
-25.830	0.000029
-25.825	-0.000012
-25.820	-0.000032
-25.815	-0.000018
-25.810	-0.000039
-25.805	-0.000005
-25.800	-0.000012
-25.795	-0.000025
-25.790	-0.000059
-25.785	-0.000005
-25.780	-0.000012
-25.775	0.000009
-25.770	-0.000005
-25.765	0.000008
-25.760	-0.000019
-25.755	-0.000012
-25.750	-0.000012
-25.745	0.000001
-25.740	-0.000005
-25.735	0.000001
-25.730	-0.000012
-25.725	0.000015
-25.720	-0.000012
-25.715	-0.000005
-25.710	-0.000019
-25.705	0.000001
-25.700	0.000008
-25.695	-0.000019
-25.690	0.000001
-25.685	-0.000005
-25.680	-0.000019
-25.675	-0.000026
-25.670	0.000008
-25.665	-0.000033
-25.660	0.000022
-25.655	-0.000012
-25.650	-0.000019
-25.645	-0.000033
-25.640	0.000015
-25.635	-0.000033
-25.630	-0.000006
-25.625	-0.000026
-25.620	-0.000006
-25.615	-0.000026
-25.610	-0.000047
-25.605	-0.000013
-25.600	-0.000020
-25.595	0.000008
-25.590	0.000008
-25.585	0.000001
-25.580	-0.000013
-25.575	-0.000013
-25.570	0.000021
-25.565	0.000001
-25.560	0.000014
-25.555	0.000021
-25.550	-0.000047
-25.545	0.000001
-25.540	0.000001
-25.535	-0.000033
-25.530	-0.000012
-25.525	-0.000040
-25.520	0.000001
-25.515	-0.000027
-25.510	0.000001
-25.505	-0.000006
-25.500	0.000007
-25.495	0.000000
-25.490	-0.000006
-25.485	-0.000013
-25.480	-0.000013
-25.475	-0.000020
-25.470	-0.000013
-25.465	-0.000027
-25.460	-0.000006
-25.455	0.000014
-25.450	-0.000013
-25.445	0.000014
-25.440	0.000007
-25.435	0.000000
-25.430	-0.000006
-25.425	-0.000006
-25.420	-0.000006
-25.415	-0.000027
-25.410	0.000027
-25.405	-0.000041
-25.400	-0.000006
-25.395	-0.000013
-25.390	0.000021
-25.385	-0.000013
-25.380	-0.000013
-25.375	0.000007
-25.370	0.000000
-25.365	0.000014
-25.360	0.000034
-25.355	-0.000027
-25.350	0.000013
-25.345	-0.000000
-25.340	-0.000021
-25.335	-0.000028
-25.330	-0.000027
-25.325	0.000000
-25.320	0.000020
-25.315	0.000006
-25.310	0.000013
-25.305	-0.000007
-25.300	-0.000007
-25.295	-0.000007
-25.290	-0.000014
-25.285	0.000020
-25.280	0.000020
-25.275	-0.000000
-25.270	-0.000034
-25.265	-0.000007
-25.260	-0.000007
-25.255	-0.000027
-25.250	-0.000014
-25.245	-0.000007
-25.240	-0.000001
-25.235	0.000013
-25.230	0.000033
-25.225	0.000013
-25.220	-0.000007
-25.215	-0.000014
-25.210	-0.000001
-25.205	0.000006
-25.200	-0.000014
-25.195	-0.000027
-25.190	0.000027
-25.185	-0.000001
-25.180	0.000033
-25.175	0.000013
-25.170	-0.000001
-25.165	0.000026
-25.160	0.000040
-25.155	0.000013
-25.150	0.000006
-25.145	-0.000021
-25.140	-0.000014
-25.135	-0.000028
-25.130	0.000027
-25.125	-0.000014
-25.120	-0.000001
-25.115	0.000012
-25.110	0.000006
-25.105	0.000046
-25.100	0.000026
-25.095	0.000026
-25.090	0.000026
-25.085	-0.000001
-25.080	0.000006
-25.075	0.000012
-25.070	0.000005
-25.065	0.000006
-25.060	0.000020
-25.055	0.000026
-25.050	0.000039
-25.045	0.000026
-25.040	0.000019
-25.035	0.000026
-25.030	0.000012
-25.025	-0.000001
-25.020	0.000019
-25.015	-0.000001
-25.010	0.000012
-25.005	0.000026
-25.000	0.000005
-24.995	-0.000021
-24.990	0.000019
-24.985	-0.000001
-24.980	0.000012
-24.975	0.000005
-24.970	0.000033
-24.965	0.000019
-24.960	0.000026
-24.955	0.000039
-24.950	0.000039
-24.945	-0.000002
-24.940	0.000005
-24.935	-0.000002
-24.930	-0.000008
-24.925	-0.000028
-24.920	-0.000001
-24.915	0.000032
-24.910	0.000019
-24.905	0.000039
-24.900	0.000033
-24.895	0.000039
-24.890	0.000026
-24.885	0.000019
-24.880	0.000005
-24.875	-0.000015
-24.870	0.000026
-24.865	0.000046
-24.860	0.000040
-24.855	0.000026
-24.850	0.000032
-24.845	0.000039
-24.840	0.000039
-24.835	0.000032
-24.830	0.000039
-24.825	0.000032
-24.820	0.000018
-24.815	0.000046
-24.810	0.000005
-24.805	0.000025
-24.800	0.000039
-24.795	0.000005
-24.790	0.000039
-24.785	0.000039
-24.780	0.000025
-24.775	-0.000009
-24.770	0.000026
-24.765	0.000025
-24.760	0.000053
-24.755	0.000039
-24.750	0.000019
-24.745	0.000032
-24.740	0.000012
-24.735	0.000032
-24.730	0.000046
-24.725	0.000032
-24.720	0.000053
-24.715	0.000025
-24.710	0.000046
-24.705	0.000059
-24.700	0.000066
-24.695	0.000032
-24.690	0.000039
-24.685	0.000025
-24.680	0.000032
-24.675	0.000038
-24.670	0.000039
-24.665	0.000066
-24.660	0.000032
-24.655	0.000032
-24.650	0.000059
-24.645	0.000059
-24.640	0.000052
-24.635	0.000045
-24.630	0.000046
-24.625	0.000052
-24.620	0.000045
-24.615	0.000018
-24.610	0.000032
-24.605	0.000059
-24.600	0.000032
-24.595	0.000032
-24.590	0.000039
-24.585	0.000038
-24.580	0.000059
-24.575	0.000045
-24.570	0.000072
-24.565	0.000072
-24.560	0.000038
-24.555	0.000052
-24.550	0.000018
-24.545	0.000072
-24.540	0.000031
-24.535	0.000031
-24.530	0.000039
-24.525	0.000045
-24.520	0.000045
-24.515	0.000038
-24.510	0.000093
-24.505	0.000065
-24.500	0.000086
-24.495	0.000038
-24.490	0.000052
-24.485	0.000052
-24.480	0.000045
-24.475	0.000045
-24.470	0.000065
-24.465	0.000032
-24.460	0.000052
-24.455	0.000038
-24.450	0.000079
-24.445	0.000072
-24.440	0.000038
-24.435	0.000052
-24.430	0.000065
-24.425	0.000072
-24.420	0.000038
-24.415	0.000065
-24.410	0.000051
-24.405	0.000058
-24.400	0.000065
-24.395	0.000072
-24.390	0.000065
-24.385	0.000065
-24.380	0.000085
-24.375	0.000085
-24.370	0.000065
-24.365	0.000072
-24.360	0.000085
-24.355	0.000051
-24.350	0.000058
-24.345	0.000058
-24.340	0.000045
-24.335	0.000058
-24.330	0.000045
-24.325	0.000079
-24.320	0.000052
-24.315	0.000085
-24.310	0.000072
-24.305	0.000078
-24.300	0.000058
-24.295	0.000065
-24.290	0.000051
-24.285	0.000058
-24.280	0.000065
-24.275	0.000071
-24.270	0.000058
-24.265	0.000051
-24.260	0.000051
-24.255	0.000058
-24.250	0.000058
-24.245	0.000085
-24.240	0.000092
-24.235	0.000065
-24.230	0.000099
-24.225	0.000058
-24.220	0.000064
-24.215	0.000057
-24.210	0.000037
-24.205	0.000098
-24.200	0.000071
-24.195	0.000051
-24.190	0.000058
-24.185	0.000051
-24.180	0.000085
-24.175	0.000058
-24.170	0.000085
-24.165	0.000071
-24.160	0.000105
-24.155	0.000084
-24.150	0.000071
-24.145	0.000077
-24.140	0.000070
-24.135	0.000057
-24.130	0.000078
-24.125	0.000071
-24.120	0.000064
-24.115	0.000071
-24.110	0.000077
-24.105	0.000071
-24.100	0.000091
-24.095	0.000091
-24.090	0.000064
-24.085	0.000030
-24.080	0.000064
-24.075	0.000050
-24.070	0.000057
-24.065	0.000057
-24.060	0.000078
-24.055	0.000078
-24.050	0.000084
-24.045	0.000057
-24.040	0.000084
-24.035	0.000084
-24.030	0.000098
-24.025	0.000077
-24.020	0.000057
-24.015	0.000077
-24.010	0.000043
-24.005	0.000070
-24.000	0.000070
-23.995	0.000057
-23.990	0.000084
-23.985	0.000070
-23.980	0.000050
-23.975	0.000104
-23.970	0.000091
-23.965	0.000063
-23.960	0.000084
-23.955	0.000070
-23.950	0.000070
-23.945	0.000063
-23.940	0.000036
-23.935	0.000049
-23.930	0.000077
-23.925	0.000097
-23.920	0.000077
-23.915	0.000063
-23.910	0.000083
-23.905	0.000083
-23.900	0.000063
-23.895	0.000083
-23.890	0.000062
-23.885	0.000056
-23.880	0.000056
-23.875	0.000049
-23.870	0.000076
-23.865	0.000029
-23.860	0.000104
-23.855	0.000062
-23.850	0.000089
-23.845	0.000076
-23.840	0.000062
-23.835	0.000062
-23.830	0.000056
-23.825	0.000062
-23.820	0.000062
-23.815	0.000062
-23.810	0.000035
-23.805	0.000048
-23.800	0.000083
-23.795	0.000056
-23.790	0.000056
-23.785	0.000062
-23.780	0.000082
-23.775	0.000076
-23.770	0.000082
-23.765	0.000082
-23.760	0.000082
-23.755	0.000062
-23.750	0.000055
-23.745	0.000048
-23.740	0.000048
-23.735	0.000062
-23.730	0.000049
-23.725	0.000028
-23.720	0.000021
-23.715	0.000048
-23.710	0.000082
-23.705	0.000062
-23.700	0.000089
-23.695	0.000089
-23.690	0.000082
-23.685	0.000082
-23.680	0.000068
-23.675	0.000068
-23.670	0.000041
-23.665	0.000069
-23.660	0.000062
-23.655	0.000089
-23.650	0.000075
-23.645	0.000061
-23.640	0.000075
-23.635	0.000061
-23.630	0.000089
-23.625	0.000041
-23.620	0.000068
-23.615	0.000075
-23.610	0.000054
-23.605	0.000047
-23.600	0.000075
-23.595	0.000055
-23.590	0.000055
-23.585	0.000088
-23.580	0.000075
-23.575	0.000081
-23.570	0.000061
-23.565	0.000047
-23.560	0.000061
-23.555	0.000054
-23.550	0.000054
-23.545	0.000040
-23.540	0.000047
-23.535	0.000020
-23.530	0.000041
-23.525	0.000027
-23.520	0.000040
-23.515	0.000040
-23.510	0.000060
-23.505	0.000040
-23.500	0.000054
-23.495	0.000054
-23.490	0.000026
-23.485	0.000026
-23.480	0.000006
-23.475	0.000019
-23.470	0.000040
-23.465	0.000027
-23.460	0.000034
-23.455	0.000026
-23.450	0.000040
-23.445	0.000060
-23.440	0.000040
-23.435	0.000060
-23.430	0.000081
-23.425	0.000033
-23.420	0.000087
-23.415	0.000040
-23.410	0.000033
-23.405	0.000026
-23.400	0.000019
-23.395	0.000033
-23.390	0.000067
-23.385	0.000019
-23.380	0.000073
-23.375	0.000039
-23.370	0.000019
-23.365	0.000046
-23.360	0.000039
-23.355	0.000046
-23.350	0.000046
-23.345	0.000025
-23.340	0.000046
-23.335	0.000018
-23.330	0.000067
-23.325	0.000066
-23.320	0.000025
-23.315	0.000052
-23.310	0.000039
-23.305	0.000052
-23.300	0.000053
-23.295	0.000066
-23.290	0.000039
-23.285	0.000059
-23.280	0.000032
-23.275	0.000052
-23.270	0.000012
-23.265	0.000025
-23.260	0.000039
-23.255	0.000052
-23.250	0.000038
-23.245	0.000039
-23.240	0.000045
-23.235	0.000052
-23.230	0.000045
-23.225	0.000038
-23.220	0.000038
-23.215	0.000018
-23.210	0.000025
-23.205	0.000031
-23.200	0.000052
-23.195	0.000025
-23.190	0.000039
-23.185	0.000045
-23.180	0.000045
-23.175	0.000052
-23.170	0.000038
-23.165	0.000052
-23.160	0.000025
-23.155	0.000024
-23.150	0.000065
-23.145	0.000038
-23.140	0.000045
-23.135	0.000031
-23.130	0.000065
-23.125	0.000065
-23.120	0.000058
-23.115	0.000051
-23.110	0.000058
-23.105	0.000065
-23.100	0.000058
-23.095	0.000051
-23.090	0.000010
-23.085	0.000031
-23.080	0.000037
-23.075	0.000031
-23.070	0.000031
-23.065	0.000045
-23.060	0.000038
-23.055	0.000038
-23.050	0.000044
-23.045	0.000044
-23.040	0.000065
-23.035	0.000078
-23.030	0.000024
-23.025	0.000017
-23.020	0.000058
-23.015	0.000024
-23.010	0.000037
-23.005	0.000010
-23.000	0.000031
-22.995	0.000051
-22.990	0.000058
-22.985	0.000044
-22.980	0.000051
-22.975	0.000064
-22.970	0.000051
-22.965	0.000044
-22.960	0.000057
-22.955	0.000030
-22.950	0.000037
-22.945	0.000023
-22.940	0.000044
-22.935	0.000023
-22.930	0.000031
-22.925	0.000030
-22.920	0.000023
-22.915	0.000057
-22.910	0.000044
-22.905	0.000064
-22.900	0.000057
-22.895	0.000010
-22.890	0.000044
-22.885	0.000037
-22.880	0.000037
-22.875	0.000009
-22.870	0.000043
-22.865	0.000024
-22.860	0.000010
-22.855	0.000044
-22.850	0.000057
-22.845	0.000037
-22.840	0.000043
-22.835	0.000016
-22.830	0.000050
-22.825	0.000043
-22.820	0.000077
-22.815	0.000022
-22.810	0.000023
-22.805	0.000016
-22.800	0.000057
-22.795	0.000016
-22.790	0.000016
-22.785	0.000056
-22.780	0.000050
-22.775	0.000029
-22.770	0.000036
-22.765	0.000036
-22.760	0.000057
-22.755	0.000036
-22.750	0.000023
-22.745	0.000036
-22.740	0.000050
-22.735	0.000016
-22.730	0.000030
-22.725	-0.000004
-22.720	0.000016
-22.715	0.000036
-22.710	0.000043
-22.705	0.000070
-22.700	0.000056
-22.695	0.000049
-22.690	0.000002
-22.685	0.000042
-22.680	0.000042
-22.675	0.000015
-22.670	0.000049
-22.665	0.000029
-22.660	0.000036
-22.655	0.000002
-22.650	0.000022
-22.645	0.000015
-22.640	0.000029
-22.635	0.000036
-22.630	0.000015
-22.625	0.000036
-22.620	0.000022
-22.615	-0.000005
-22.610	0.000001
-22.605	0.000029
-22.600	-0.000012
-22.595	0.000022
-22.590	0.000022
-22.585	0.000022
-22.580	0.000015
-22.575	0.000035
-22.570	0.000028
-22.565	0.000035
-22.560	0.000042
-22.555	0.000055
-22.550	0.000001
-22.545	0.000055
-22.540	0.000035
-22.535	-0.000013
-22.530	0.000022
-22.525	0.000015
-22.520	0.000055
-22.515	0.000021
-22.510	0.000021
-22.505	0.000042
-22.500	0.000028
-22.495	0.000015
-22.490	0.000028
-22.485	0.000021
-22.480	-0.000006
-22.475	0.000021
-22.470	0.000008
-22.465	0.000015
-22.460	0.000022
-22.455	0.000001
-22.450	0.000028
-22.445	0.000034
-22.440	0.000028
-22.435	0.000041
-22.430	0.000048
-22.425	0.000007
-22.420	0.000021
-22.415	0.000014
-22.410	0.000027
-22.405	0.000028
-22.400	0.000007
-22.395	0.000021
-22.390	0.000035
-22.385	0.000034
-22.380	0.000021
-22.375	0.000014
-22.370	0.000028
-22.365	0.000007
-22.360	-0.000006
-22.355	0.000000
-22.350	0.000007
-22.345	-0.000013
-22.340	0.000027
-22.335	0.000034
-22.330	0.000001
-22.325	0.000028
-22.320	0.000034
-22.315	-0.000014
-22.310	0.000034
-22.305	0.000041
-22.300	0.000034
-22.295	0.000014
-22.290	0.000013
-22.285	0.000054
-22.280	0.000007
-22.275	-0.000021
-22.270	-0.000000
-22.265	0.000007
-22.260	0.000000
-22.255	0.000014
-22.250	0.000013
-22.245	0.000007
-22.240	0.000034
-22.235	0.000027
-22.230	0.000027
-22.225	0.000020
-22.220	-0.000000
-22.215	-0.000007
-22.210	-0.000000
-22.205	-0.000014
-22.200	-0.000020
-22.195	0.000007
-22.190	0.000020
-22.185	0.000020
-22.180	0.000020
-22.175	0.000033
-22.170	0.000020
-22.165	-0.000001
-22.160	0.000006
-22.155	0.000013
-22.150	0.000006
-22.145	-0.000008
-22.140	-0.000007
-22.135	-0.000021
-22.130	0.000013
-22.125	-0.000000
-22.120	0.000013
-22.115	0.000033
-22.110	0.000040
-22.105	0.000020
-22.100	0.000033
-22.095	0.000026
-22.090	0.000020
-22.085	0.000006
-22.080	-0.000028
-22.075	0.000019
-22.070	-0.000042
-22.065	-0.000001
-22.060	0.000013
-22.055	0.000033
-22.050	-0.000021
-22.045	0.000006
-22.040	0.000019
-22.035	0.000026
-22.030	-0.000021
-22.025	-0.000021
-22.020	0.000019
-22.015	0.000006
-22.010	-0.000001
-22.005	-0.000001
-22.000	-0.000001
-21.995	-0.000014
-21.990	0.000019
-21.985	0.000019
-21.980	0.000026
-21.975	0.000019
-21.970	-0.000035
-21.965	0.000006
-21.960	-0.000015
-21.955	0.000005
-21.950	-0.000022
-21.945	-0.000029
-21.940	-0.000029
-21.935	0.000019
-21.930	-0.000028
-21.925	-0.000021
-21.920	0.000019
-21.915	0.000019
-21.910	0.000019
-21.905	0.000005
-21.900	0.000039
-21.895	-0.000008
-21.890	0.000025
-21.885	-0.000002
-21.880	0.000005
-21.875	-0.000009
-21.870	0.000039
-21.865	-0.000008
-21.860	-0.000015
-21.855	-0.000015
-21.850	-0.000016
-21.845	0.000018
-21.840	-0.000022
-21.835	0.000025
-21.830	-0.000015
-21.825	-0.000022
-21.820	-0.000009
-21.815	0.000018
-21.810	0.000005
-21.805	-0.000009
-21.800	0.000019
-21.795	-0.000022
-21.790	0.000005
-21.785	-0.000002
-21.780	0.000005
-21.775	0.000005
-21.770	0.000025
-21.765	-0.000009
-21.760	-0.000002
-21.755	0.000018
-21.750	-0.000016
-21.745	0.000011
-21.740	0.000032
-21.735	0.000005
-21.730	-0.000008
-21.725	0.000005
-21.720	-0.000023
-21.715	0.000038
-21.710	0.000011
-21.705	0.000005
-21.700	0.000038
-21.695	0.000025
-21.690	0.000018
-21.685	0.000004
-21.680	-0.000002
-21.675	0.000004
-21.670	-0.000009
-21.665	0.000005
-21.660	0.000012
-21.655	0.000032
-21.650	0.000025
-21.645	0.000004
-21.640	0.000011
-21.635	0.000011
-21.630	0.000004
-21.625	0.000024
-21.620	-0.000023
-21.615	0.000024
-21.610	0.000011
-21.605	-0.000010
-21.600	0.000025
-21.595	0.000025
-21.590	0.000018
-21.585	0.000010
-21.580	0.000024
-21.575	0.000018
-21.570	0.000045
-21.565	0.000024
-21.560	0.000052
-21.555	0.000038
-21.550	0.000011
-21.545	0.000024
-21.540	-0.000017
-21.535	-0.000003
-21.530	0.000004
-21.525	0.000004
-21.520	0.000031
-21.515	0.000031
-21.510	0.000038
-21.505	0.000004
-21.500	0.000024
-21.495	0.000038
-21.490	0.000017
-21.485	0.000044
-21.480	0.000024
-21.475	-0.000024
-21.470	0.000024
-21.465	0.000065
-21.460	0.000045
-21.455	0.000085
-21.450	0.000106
-21.445	0.000154
-21.440	0.000263
-21.435	0.000373
-21.430	0.000585
-21.425	0.000921
-21.420	0.001292
-21.415	0.001844
-21.410	0.002614
-21.405	0.003632
-21.400	0.004839
-21.395	0.006293
-21.390	0.008006
-21.385	0.010055
-21.380	0.012411
-21.375	0.015171
-21.370	0.018164
-21.365	0.021416
-21.360	0.024887
-21.355	0.028498
-21.350	0.032168
-21.345	0.035802
-21.340	0.039474
-21.335	0.043213
-21.330	0.046733
-21.325	0.049894
-21.320	0.050785
-21.315	0.049771
-21.310	0.048953
-21.305	0.047477
-21.300	0.045508
-21.295	0.044586
-21.290	0.043758
-21.285	0.042815
-21.280	0.042111
-21.275	0.041717
-21.270	0.040524
-21.265	0.039133
-21.260	0.038227
-21.255	0.037296
-21.250	0.036435
-21.245	0.036021
-21.240	0.035287
-21.235	0.034391
-21.230	0.034200
-21.225	0.033591
-21.220	0.033000
-21.215	0.032486
-21.210	0.031994
-21.205	0.031585
-21.200	0.031224
-21.195	0.030974
-21.190	0.030720
-21.185	0.030614
-21.180	0.030166
-21.175	0.029322
-21.170	0.028736
-21.165	0.028523
-21.160	0.028288
-21.155	0.027773
-21.150	0.027348
-21.145	0.027201
-21.140	0.027197
-21.135	0.027439
-21.130	0.027398
-21.125	0.026508
-21.120	0.025861
-21.115	0.025712
-21.110	0.025571
-21.105	0.025328
-21.100	0.025115
-21.095	0.024984
-21.090	0.024755
-21.085	0.024425
-21.080	0.024143
-21.075	0.023966
-21.070	0.023785
-21.065	0.023553
-21.060	0.023253
-21.055	0.023050
-21.050	0.022840
-21.045	0.022746
-21.040	0.022667
-21.035	0.022496
-21.030	0.022324
-21.025	0.022143
-21.020	0.022038
-21.015	0.021907
-21.010	0.021761
-21.005	0.021711
-21.000	0.021628
-20.995	0.021550
-20.990	0.021383
-20.985	0.021186
-20.980	0.020986
-20.975	0.020818
-20.970	0.020715
-20.965	0.020604
-20.960	0.020454
-20.955	0.020303
-20.950	0.020184
-20.945	0.020068
-20.940	0.019943
-20.935	0.019845
-20.930	0.019722
-20.925	0.019625
-20.920	0.019482
-20.915	0.019377
-20.910	0.019294
-20.905	0.019161
-20.900	0.019076
-20.895	0.018999
-20.890	0.018850
-20.885	0.018749
-20.880	0.018651
-20.875	0.018564
-20.870	0.018525
-20.865	0.018441
-20.860	0.018374
-20.855	0.018315
-20.850	0.018195
-20.845	0.018075
-20.840	0.017946
-20.835	0.017850
-20.830	0.017724
-20.825	0.017631
-20.820	0.017536
-20.815	0.017481
-20.810	0.017351
-20.805	0.017263
-20.800	0.017209
-20.795	0.017170
-20.790	0.017096
-20.785	0.017030
-20.780	0.016986
-20.775	0.016915
-20.770	0.016886
-20.765	0.016759
-20.760	0.016681
-20.755	0.016641
-20.750	0.016495
-20.745	0.016397
-20.740	0.016349
-20.735	0.016292
-20.730	0.016234
-20.725	0.016135
-20.720	0.016108
-20.715	0.016042
-20.710	0.016012
-20.705	0.015899
-20.700	0.015821
-20.695	0.015752
-20.690	0.015684
-20.685	0.015638
-20.680	0.015610
-20.675	0.015523
-20.670	0.015451
-20.665	0.015430
-20.660	0.015410
-20.655	0.015319
-20.650	0.015293
-20.645	0.015233
-20.640	0.015177
-20.635	0.015095
-20.630	0.015053
-20.625	0.015003
-20.620	0.014947
-20.615	0.014926
-20.610	0.014833
-20.605	0.014799
-20.600	0.014754
-20.595	0.014733
-20.590	0.014675
-20.585	0.014603
-20.580	0.014573
-20.575	0.014567
-20.570	0.014485
-20.565	0.014434
-20.560	0.014359
-20.555	0.014310
-20.550	0.014266
-20.545	0.014208
-20.540	0.014159
-20.535	0.014114
-20.530	0.014083
-20.525	0.014035
-20.520	0.014001
-20.515	0.013971
-20.510	0.013947
