PK2650 Deflection Data
Z Position (mm)	105.000	W Position (deg)	216.00
Preform ID	Diameter (mm)	Time Stamp	Start Time	Operator	Serial Number
Test 1	25	03-Nov-22 18:05:01	03-Nov-22 18:07:09	[no user]	266007708
Radius (mm)	Deflection
-26.215	0.000004
-26.210	-0.000003
-26.205	-0.000010
-26.200	-0.000011
-26.195	-0.000017
-26.190	0.000016
-26.185	-0.000004
-26.180	0.000016
-26.175	-0.000004
-26.170	0.000016
-26.165	0.000037
-26.160	0.000016
-26.155	-0.000011
-26.150	-0.000037
-26.145	-0.000051
-26.140	0.000009
-26.135	-0.000011
-26.130	0.000003
-26.125	-0.000011
-26.120	-0.000011
-26.115	0.000023
-26.110	0.000030
-26.105	0.000023
-26.100	0.000002
-26.095	-0.000011
-26.090	-0.000011
-26.085	-0.000011
-26.080	-0.000004
-26.075	0.000009
-26.070	-0.000011
-26.065	-0.000025
-26.060	-0.000005
-26.055	-0.000018
-26.050	0.000002
-26.045	0.000015
-26.040	-0.000005
-26.035	0.000009
-26.030	-0.000005
-26.025	0.000002
-26.020	0.000023
-26.015	-0.000004
-26.010	0.000002
-26.005	0.000008
-26.000	-0.000019
-25.995	-0.000012
-25.990	-0.000018
-25.985	0.000002
-25.980	0.000002
-25.975	0.000029
-25.970	0.000015
-25.965	0.000022
-25.960	0.000022
-25.955	-0.000005
-25.950	0.000043
-25.945	0.000016
-25.940	0.000015
-25.935	-0.000019
-25.930	-0.000012
-25.925	0.000001
-25.920	0.000008
-25.915	0.000008
-25.910	0.000008
-25.905	0.000015
-25.900	0.000028
-25.895	0.000015
-25.890	0.000022
-25.885	-0.000012
-25.880	0.000002
-25.875	-0.000005
-25.870	-0.000019
-25.865	0.000014
-25.860	0.000008
-25.855	0.000008
-25.850	0.000001
-25.845	0.000015
-25.840	0.000015
-25.835	0.000015
-25.830	0.000001
-25.825	0.000028
-25.820	0.000021
-25.815	0.000001
-25.810	0.000001
-25.805	0.000008
-25.800	-0.000006
-25.795	0.000007
-25.790	0.000028
-25.785	0.000001
-25.780	0.000014
-25.775	0.000021
-25.770	0.000034
-25.765	0.000014
-25.760	0.000021
-25.755	0.000021
-25.750	0.000001
-25.745	0.000035
-25.740	0.000007
-25.735	-0.000013
-25.730	0.000007
-25.725	-0.000020
-25.720	0.000001
-25.715	0.000014
-25.710	0.000021
-25.705	0.000007
-25.700	0.000034
-25.695	0.000021
-25.690	-0.000013
-25.685	0.000021
-25.680	0.000021
-25.675	0.000014
-25.670	-0.000013
-25.665	0.000000
-25.660	0.000000
-25.655	0.000014
-25.650	0.000014
-25.645	0.000034
-25.640	0.000007
-25.635	0.000034
-25.630	0.000020
-25.625	0.000041
-25.620	-0.000006
-25.615	0.000001
-25.610	0.000014
-25.605	0.000014
-25.600	-0.000014
-25.595	0.000020
-25.590	0.000034
-25.585	0.000014
-25.580	0.000020
-25.575	0.000068
-25.570	0.000027
-25.565	0.000021
-25.560	0.000047
-25.555	0.000000
-25.550	0.000000
-25.545	0.000034
-25.540	0.000006
-25.535	0.000006
-25.530	0.000007
-25.525	0.000013
-25.520	-0.000000
-25.515	0.000034
-25.510	0.000020
-25.505	0.000054
-25.500	0.000020
-25.495	0.000034
-25.490	0.000047
-25.485	0.000034
-25.480	0.000014
-25.475	0.000020
-25.470	0.000020
-25.465	0.000040
-25.460	0.000013
-25.455	0.000027
-25.450	0.000013
-25.445	0.000007
-25.440	0.000040
-25.435	0.000034
-25.430	0.000027
-25.425	0.000013
-25.420	0.000013
-25.415	0.000047
-25.410	0.000034
-25.405	0.000019
-25.400	0.000040
-25.395	-0.000007
-25.390	0.000047
-25.385	0.000026
-25.380	0.000020
-25.375	0.000033
-25.370	0.000026
-25.365	0.000013
-25.360	0.000046
-25.355	0.000033
-25.350	0.000027
-25.345	0.000020
-25.340	0.000033
-25.335	0.000026
-25.330	0.000047
-25.325	0.000006
-25.320	0.000020
-25.315	0.000040
-25.310	0.000040
-25.305	0.000033
-25.300	0.000026
-25.295	0.000080
-25.290	0.000006
-25.285	0.000026
-25.280	0.000027
-25.275	0.000026
-25.270	0.000019
-25.265	-0.000015
-25.260	0.000040
-25.255	0.000026
-25.250	0.000046
-25.245	0.000026
-25.240	0.000012
-25.235	0.000060
-25.230	0.000039
-25.225	0.000019
-25.220	0.000020
-25.215	0.000027
-25.210	0.000006
-25.205	0.000019
-25.200	0.000039
-25.195	0.000033
-25.190	0.000033
-25.185	0.000039
-25.180	0.000053
-25.175	0.000073
-25.170	0.000046
-25.165	0.000026
-25.160	0.000026
-25.155	0.000039
-25.150	0.000033
-25.145	0.000026
-25.140	0.000032
-25.135	0.000032
-25.130	0.000032
-25.125	0.000025
-25.120	0.000019
-25.115	0.000019
-25.110	0.000026
-25.105	0.000032
-25.100	0.000012
-25.095	0.000025
-25.090	0.000066
-25.085	0.000040
-25.080	0.000046
-25.075	0.000019
-25.070	0.000032
-25.065	0.000025
-25.060	0.000039
-25.055	0.000053
-25.050	0.000046
-25.045	0.000059
-25.040	0.000053
-25.035	0.000032
-25.030	0.000052
-25.025	0.000046
-25.020	0.000039
-25.015	0.000012
-25.010	-0.000002
-25.005	0.000018
-25.000	0.000032
-24.995	0.000005
-24.990	0.000025
-24.985	0.000045
-24.980	0.000059
-24.975	0.000046
-24.970	0.000052
-24.965	0.000053
-24.960	0.000019
-24.955	0.000053
-24.950	0.000060
-24.945	0.000039
-24.940	0.000012
-24.935	0.000039
-24.930	0.000025
-24.925	0.000012
-24.920	0.000052
-24.915	0.000012
-24.910	0.000039
-24.905	0.000032
-24.900	0.000052
-24.895	0.000045
-24.890	0.000039
-24.885	0.000032
-24.880	0.000046
-24.875	0.000018
-24.870	0.000072
-24.865	0.000045
-24.860	0.000038
-24.855	0.000052
-24.850	0.000052
-24.845	0.000059
-24.840	0.000018
-24.835	0.000059
-24.830	0.000018
-24.825	0.000039
-24.820	0.000025
-24.815	0.000046
-24.810	0.000039
-24.805	0.000025
-24.800	0.000032
-24.795	0.000025
-24.790	0.000025
-24.785	0.000032
-24.780	0.000039
-24.775	0.000072
-24.770	0.000018
-24.765	0.000032
-24.760	0.000052
-24.755	0.000045
-24.750	0.000039
-24.745	0.000032
-24.740	0.000045
-24.735	0.000052
-24.730	0.000045
-24.725	0.000031
-24.720	0.000031
-24.715	0.000018
-24.710	0.000066
-24.705	0.000059
-24.700	0.000066
-24.695	0.000038
-24.690	0.000012
-24.685	0.000039
-24.680	0.000032
-24.675	0.000025
-24.670	0.000018
-24.665	0.000031
-24.660	0.000025
-24.655	0.000038
-24.650	0.000039
-24.645	0.000032
-24.640	0.000018
-24.635	0.000038
-24.630	0.000038
-24.625	0.000045
-24.620	0.000052
-24.615	0.000005
-24.610	0.000038
-24.605	0.000038
-24.600	0.000011
-24.595	0.000031
-24.590	0.000051
-24.585	0.000038
-24.580	0.000065
-24.575	0.000058
-24.570	0.000038
-24.565	0.000052
-24.560	0.000065
-24.555	0.000032
-24.550	0.000052
-24.545	0.000066
-24.540	0.000038
-24.535	0.000031
-24.530	0.000079
-24.525	0.000031
-24.520	0.000038
-24.515	0.000065
-24.510	0.000065
-24.505	0.000079
-24.500	0.000085
-24.495	0.000052
-24.490	0.000065
-24.485	0.000079
-24.480	0.000032
-24.475	0.000024
-24.470	0.000058
-24.465	0.000031
-24.460	0.000065
-24.455	0.000072
-24.450	0.000051
-24.445	0.000078
-24.440	0.000045
-24.435	0.000045
-24.430	0.000058
-24.425	0.000058
-24.420	0.000038
-24.415	0.000032
-24.410	0.000065
-24.405	0.000058
-24.400	0.000051
-24.395	0.000011
-24.390	0.000038
-24.385	0.000079
-24.380	0.000065
-24.375	0.000065
-24.370	0.000044
-24.365	0.000051
-24.360	0.000044
-24.355	0.000058
-24.350	0.000058
-24.345	0.000052
-24.340	0.000044
-24.335	0.000031
-24.330	0.000024
-24.325	0.000071
-24.320	0.000051
-24.315	0.000051
-24.310	0.000051
-24.305	0.000058
-24.300	0.000024
-24.295	0.000044
-24.290	0.000071
-24.285	0.000052
-24.280	0.000031
-24.275	0.000064
-24.270	0.000064
-24.265	0.000037
-24.260	0.000051
-24.255	0.000044
-24.250	0.000071
-24.245	0.000085
-24.240	0.000071
-24.235	0.000057
-24.230	0.000050
-24.225	0.000050
-24.220	0.000057
-24.215	0.000051
-24.210	0.000051
-24.205	0.000050
-24.200	0.000050
-24.195	0.000017
-24.190	0.000043
-24.185	0.000057
-24.180	0.000057
-24.175	0.000078
-24.170	0.000050
-24.165	0.000077
-24.160	0.000064
-24.155	0.000071
-24.150	0.000064
-24.145	0.000023
-24.140	0.000050
-24.135	0.000050
-24.130	0.000036
-24.125	0.000043
-24.120	0.000077
-24.115	0.000057
-24.110	0.000084
-24.105	0.000064
-24.100	0.000070
-24.095	0.000070
-24.090	0.000084
-24.085	0.000023
-24.080	0.000057
-24.075	0.000043
-24.070	0.000056
-24.065	0.000030
-24.060	0.000043
-24.055	0.000009
-24.050	0.000050
-24.045	0.000043
-24.040	0.000050
-24.035	0.000056
-24.030	0.000043
-24.025	0.000043
-24.020	0.000037
-24.015	0.000057
-24.010	0.000029
-24.005	0.000016
-24.000	0.000049
-23.995	0.000009
-23.990	0.000056
-23.985	0.000063
-23.980	0.000043
-23.975	0.000050
-23.970	0.000070
-23.965	0.000016
-23.960	0.000063
-23.955	0.000036
-23.950	0.000023
-23.945	0.000022
-23.940	0.000035
-23.935	0.000042
-23.930	0.000022
-23.925	0.000015
-23.920	0.000035
-23.915	0.000083
-23.910	0.000069
-23.905	0.000035
-23.900	0.000042
-23.895	0.000049
-23.890	0.000022
-23.885	0.000022
-23.880	0.000043
-23.875	0.000008
-23.870	0.000001
-23.865	0.000042
-23.860	0.000028
-23.855	0.000001
-23.850	0.000048
-23.845	0.000035
-23.840	0.000055
-23.835	0.000042
-23.830	0.000042
-23.825	0.000062
-23.820	0.000028
-23.815	0.000015
-23.810	0.000042
-23.805	0.000041
-23.800	0.000028
-23.795	0.000028
-23.790	0.000041
-23.785	0.000021
-23.780	0.000028
-23.775	0.000062
-23.770	0.000055
-23.765	0.000041
-23.760	0.000041
-23.755	0.000015
-23.750	0.000008
-23.745	0.000015
-23.740	0.000014
-23.735	0.000041
-23.730	0.000021
-23.725	0.000028
-23.720	0.000061
-23.715	0.000034
-23.710	0.000028
-23.705	0.000041
-23.700	0.000007
-23.695	0.000021
-23.690	0.000034
-23.685	0.000014
-23.680	-0.000006
-23.675	0.000020
-23.670	0.000047
-23.665	0.000007
-23.660	0.000054
-23.655	0.000000
-23.650	0.000027
-23.645	0.000034
-23.640	0.000054
-23.635	0.000027
-23.630	-0.000000
-23.625	0.000027
-23.620	0.000014
-23.615	-0.000006
-23.610	0.000047
-23.605	-0.000000
-23.600	0.000013
-23.595	0.000020
-23.590	0.000013
-23.585	0.000034
-23.580	-0.000021
-23.575	0.000006
-23.570	0.000006
-23.565	0.000027
-23.560	-0.000014
-23.555	-0.000014
-23.550	0.000000
-23.545	-0.000014
-23.540	0.000006
-23.535	-0.000001
-23.530	-0.000021
-23.525	-0.000021
-23.520	-0.000014
-23.515	0.000019
-23.510	-0.000001
-23.505	-0.000008
-23.500	-0.000021
-23.495	-0.000055
-23.490	-0.000021
-23.485	-0.000027
-23.480	-0.000055
-23.475	-0.000062
-23.470	-0.000035
-23.465	-0.000021
-23.460	-0.000035
-23.455	-0.000042
-23.450	-0.000008
-23.445	-0.000008
-23.440	0.000006
-23.435	-0.000015
-23.430	-0.000029
-23.425	-0.000022
-23.420	-0.000015
-23.415	-0.000055
-23.410	-0.000035
-23.405	-0.000029
-23.400	-0.000009
-23.395	0.000005
-23.390	-0.000036
-23.385	-0.000036
-23.380	0.000005
-23.375	-0.000002
-23.370	-0.000036
-23.365	0.000019
-23.360	-0.000009
-23.355	-0.000035
-23.350	-0.000022
-23.345	-0.000002
-23.340	-0.000029
-23.335	-0.000029
-23.330	-0.000029
-23.325	-0.000036
-23.320	-0.000023
-23.315	-0.000022
-23.310	0.000005
-23.305	-0.000009
-23.300	0.000004
-23.295	-0.000043
-23.290	-0.000030
-23.285	-0.000029
-23.280	-0.000043
-23.275	-0.000036
-23.270	-0.000016
-23.265	-0.000050
-23.260	-0.000037
-23.255	-0.000016
-23.250	-0.000023
-23.245	-0.000009
-23.240	-0.000016
-23.235	-0.000009
-23.230	0.000004
-23.225	-0.000016
-23.220	-0.000009
-23.215	-0.000009
-23.210	-0.000071
-23.205	-0.000037
-23.200	-0.000030
-23.195	-0.000023
-23.190	-0.000023
-23.185	-0.000023
-23.180	0.000017
-23.175	-0.000023
-23.170	0.000004
-23.165	-0.000003
-23.160	-0.000003
-23.155	-0.000030
-23.150	-0.000036
-23.145	-0.000050
-23.140	0.000017
-23.135	-0.000037
-23.130	-0.000017
-23.125	-0.000037
-23.120	-0.000044
-23.115	-0.000037
-23.110	-0.000003
-23.105	0.000010
-23.100	-0.000010
-23.095	-0.000024
-23.090	-0.000050
-23.085	-0.000016
-23.080	-0.000050
-23.075	-0.000037
-23.070	-0.000024
-23.065	-0.000004
-23.060	-0.000037
-23.055	-0.000030
-23.050	-0.000044
-23.045	-0.000004
-23.040	-0.000031
-23.035	0.000003
-23.030	-0.000018
-23.025	-0.000065
-23.020	-0.000044
-23.015	-0.000037
-23.010	-0.000051
-23.005	-0.000045
-23.000	-0.000024
-22.995	-0.000024
-22.990	-0.000038
-22.985	-0.000018
-22.980	-0.000031
-22.975	-0.000024
-22.970	-0.000024
-22.965	-0.000044
-22.960	-0.000024
-22.955	-0.000037
-22.950	-0.000064
-22.945	-0.000031
-22.940	-0.000072
-22.935	-0.000052
-22.930	-0.000025
-22.925	0.000003
-22.920	-0.000045
-22.915	-0.000051
-22.910	-0.000058
-22.905	-0.000018
-22.900	-0.000025
-22.895	-0.000025
-22.890	-0.000065
-22.885	-0.000038
-22.880	-0.000024
-22.875	-0.000045
-22.870	-0.000052
-22.865	-0.000032
-22.860	-0.000039
-22.855	-0.000052
-22.850	-0.000032
-22.845	-0.000025
-22.840	-0.000038
-22.835	-0.000005
-22.830	0.000009
-22.825	-0.000025
-22.820	-0.000031
-22.815	-0.000038
-22.810	-0.000045
-22.805	-0.000032
-22.800	-0.000039
-22.795	-0.000052
-22.790	-0.000052
-22.785	-0.000045
-22.780	-0.000025
-22.775	-0.000018
-22.770	-0.000039
-22.765	-0.000052
-22.760	-0.000032
-22.755	-0.000011
-22.750	-0.000052
-22.745	-0.000059
-22.740	-0.000086
-22.735	-0.000019
-22.730	-0.000046
-22.725	-0.000053
-22.720	-0.000066
-22.715	-0.000005
-22.710	-0.000019
-22.705	-0.000025
-22.700	-0.000039
-22.695	-0.000026
-22.690	-0.000045
-22.685	-0.000045
-22.680	-0.000032
-22.675	-0.000059
-22.670	-0.000039
-22.665	-0.000046
-22.660	-0.000026
-22.655	-0.000032
-22.650	-0.000039
-22.645	-0.000019
-22.640	-0.000046
-22.635	-0.000039
-22.630	-0.000060
-22.625	-0.000033
-22.620	-0.000039
-22.615	-0.000032
-22.610	-0.000039
-22.605	-0.000053
-22.600	-0.000040
-22.595	-0.000046
-22.590	-0.000026
-22.585	-0.000040
-22.580	-0.000019
-22.575	-0.000073
-22.570	-0.000046
-22.565	-0.000053
-22.560	-0.000046
-22.555	-0.000046
-22.550	-0.000066
-22.545	-0.000039
-22.540	-0.000087
-22.535	-0.000046
-22.530	-0.000060
-22.525	-0.000053
-22.520	-0.000040
-22.515	-0.000019
-22.510	-0.000047
-22.505	-0.000053
-22.500	-0.000054
-22.495	-0.000053
-22.490	-0.000053
-22.485	-0.000046
-22.480	-0.000053
-22.475	-0.000087
-22.470	-0.000074
-22.465	-0.000040
-22.460	-0.000067
-22.455	-0.000047
-22.450	-0.000047
-22.445	-0.000040
-22.440	-0.000040
-22.435	-0.000020
-22.430	-0.000040
-22.425	-0.000060
-22.420	-0.000033
-22.415	-0.000033
-22.410	-0.000054
-22.405	-0.000040
-22.400	-0.000088
-22.395	-0.000053
-22.390	-0.000047
-22.385	-0.000020
-22.380	-0.000060
-22.375	-0.000047
-22.370	-0.000013
-22.365	-0.000047
-22.360	-0.000034
-22.355	-0.000054
-22.350	-0.000047
-22.345	-0.000047
-22.340	-0.000034
-22.335	-0.000054
-22.330	-0.000041
-22.325	-0.000047
-22.320	-0.000047
-22.315	-0.000027
-22.310	-0.000020
-22.305	-0.000061
-22.300	-0.000041
-22.295	-0.000047
-22.290	-0.000061
-22.285	-0.000040
-22.280	-0.000054
-22.275	-0.000061
-22.270	-0.000075
-22.265	-0.000061
-22.260	-0.000068
-22.255	-0.000047
-22.250	-0.000034
-22.245	-0.000027
-22.240	-0.000054
-22.235	-0.000054
-22.230	-0.000075
-22.225	-0.000054
-22.220	-0.000054
-22.215	-0.000047
-22.210	-0.000048
-22.205	-0.000054
-22.200	-0.000055
-22.195	-0.000068
-22.190	-0.000068
-22.185	-0.000028
-22.180	-0.000034
-22.175	-0.000055
-22.170	-0.000034
-22.165	-0.000027
-22.160	-0.000041
-22.155	-0.000067
-22.150	-0.000027
-22.145	-0.000095
-22.140	-0.000068
-22.135	-0.000041
-22.130	-0.000068
-22.125	-0.000034
-22.120	-0.000041
-22.115	-0.000048
-22.110	-0.000034
-22.105	-0.000054
-22.100	-0.000021
-22.095	-0.000048
-22.090	-0.000041
-22.085	-0.000068
-22.080	-0.000081
-22.075	-0.000068
-22.070	-0.000068
-22.065	-0.000055
-22.060	-0.000041
-22.055	-0.000062
-22.050	-0.000041
-22.045	-0.000041
-22.040	-0.000041
-22.035	-0.000055
-22.030	-0.000055
-22.025	-0.000027
-22.020	-0.000048
-22.015	-0.000054
-22.010	-0.000062
-22.005	-0.000062
-22.000	-0.000062
-21.995	-0.000068
-21.990	-0.000055
-21.985	-0.000048
-21.980	-0.000035
-21.975	-0.000021
-21.970	-0.000021
-21.965	-0.000035
-21.960	-0.000062
-21.955	-0.000048
-21.950	-0.000048
-21.945	-0.000048
-21.940	-0.000076
-21.935	-0.000042
-21.930	-0.000028
-21.925	-0.000048
-21.920	-0.000015
-21.915	-0.000055
-21.910	-0.000042
-21.905	-0.000035
-21.900	-0.000042
-21.895	-0.000055
-21.890	-0.000062
-21.885	-0.000041
-21.880	-0.000055
-21.875	-0.000049
-21.870	-0.000035
-21.865	-0.000049
-21.860	-0.000076
-21.855	-0.000042
-21.850	-0.000035
-21.845	-0.000062
-21.840	-0.000035
-21.835	-0.000042
-21.830	-0.000015
-21.825	-0.000069
-21.820	-0.000021
-21.815	-0.000055
-21.810	-0.000049
-21.805	-0.000042
-21.800	-0.000029
-21.795	-0.000042
-21.790	-0.000062
-21.785	-0.000028
-21.780	-0.000056
-21.775	-0.000035
-21.770	0.000005
-21.765	-0.000042
-21.760	-0.000042
-21.755	-0.000055
-21.750	-0.000041
-21.745	-0.000028
-21.740	-0.000042
-21.735	-0.000028
-21.730	-0.000035
-21.725	-0.000028
-21.720	-0.000042
-21.715	-0.000042
-21.710	-0.000035
-21.705	-0.000002
-21.700	-0.000035
-21.695	-0.000022
-21.690	-0.000028
-21.685	-0.000035
-21.680	-0.000035
-21.675	-0.000063
-21.670	-0.000043
-21.665	-0.000036
-21.660	-0.000035
-21.655	-0.000035
-21.650	-0.000036
-21.645	-0.000022
-21.640	-0.000070
-21.635	-0.000049
-21.630	-0.000015
-21.625	-0.000029
-21.620	-0.000076
-21.615	-0.000001
-21.610	-0.000043
-21.605	-0.000042
-21.600	-0.000036
-21.595	-0.000022
-21.590	-0.000029
-21.585	-0.000042
-21.580	-0.000002
-21.575	-0.000029
-21.570	-0.000036
-21.565	-0.000009
-21.560	-0.000029
-21.555	-0.000035
-21.550	-0.000049
-21.545	-0.000043
-21.540	-0.000050
-21.535	-0.000023
-21.530	-0.000016
-21.525	-0.000009
-21.520	-0.000016
-21.515	-0.000029
-21.510	-0.000016
-21.505	-0.000009
-21.500	-0.000016
-21.495	-0.000002
-21.490	0.000025
-21.485	-0.000015
-21.480	-0.000009
-21.475	0.000012
-21.470	-0.000009
-21.465	0.000005
-21.460	0.000025
-21.455	0.000046
-21.450	0.000066
-21.445	0.000121
-21.440	0.000223
-21.435	0.000332
-21.430	0.000557
-21.425	0.000872
-21.420	0.001277
-21.415	0.001814
-21.410	0.002559
-21.405	0.003581
-21.400	0.004815
-21.395	0.006296
-21.390	0.008051
-21.385	0.010034
-21.380	0.012411
-21.375	0.015151
-21.370	0.018119
-21.365	0.021298
-21.360	0.024691
-21.355	0.028305
-21.350	0.031953
-21.345	0.035523
-21.340	0.039165
-21.335	0.042856
-21.330	0.046285
-21.325	0.049497
-21.320	0.050448
-21.315	0.049529
-21.310	0.048764
-21.305	0.047252
-21.300	0.045329
-21.295	0.044368
-21.290	0.043546
-21.285	0.042569
-21.280	0.041735
-21.275	0.041215
-21.270	0.040129
-21.265	0.038937
-21.260	0.037976
-21.255	0.036959
-21.250	0.036045
-21.245	0.035746
-21.240	0.034945
-21.235	0.034123
-21.230	0.034012
-21.225	0.033311
-21.220	0.032717
-21.215	0.032203
-21.210	0.031772
-21.205	0.031351
-21.200	0.030979
-21.195	0.030699
-21.190	0.030337
-21.185	0.030402
-21.180	0.030141
-21.175	0.029249
-21.170	0.028479
-21.165	0.028190
-21.160	0.027901
-21.155	0.027466
-21.150	0.027089
-21.145	0.026956
-21.140	0.026819
-21.135	0.027027
-21.130	0.027129
-21.125	0.026432
-21.120	0.025722
-21.115	0.025507
-21.110	0.025349
-21.105	0.025095
-21.100	0.024881
-21.095	0.024758
-21.090	0.024552
-21.085	0.024232
-21.080	0.023896
-21.075	0.023754
-21.070	0.023583
-21.065	0.023326
-21.060	0.023090
-21.055	0.022860
-21.050	0.022670
-21.045	0.022595
-21.040	0.022486
-21.035	0.022332
-21.030	0.022170
-21.025	0.021989
-21.020	0.021862
-21.015	0.021737
-21.010	0.021580
-21.005	0.021575
-21.000	0.021457
-20.995	0.021397
-20.990	0.021243
-20.985	0.021042
-20.980	0.020814
-20.975	0.020708
-20.970	0.020594
-20.965	0.020477
-20.960	0.020323
-20.955	0.020180
-20.950	0.020056
-20.945	0.019944
-20.940	0.019807
-20.935	0.019705
-20.930	0.019604
-20.925	0.019528
-20.920	0.019377
-20.915	0.019260
-20.910	0.019153
-20.905	0.019041
-20.900	0.018947
-20.895	0.018849
-20.890	0.018743
-20.885	0.018612
-20.880	0.018570
-20.875	0.018488
-20.870	0.018366
-20.865	0.018325
-20.860	0.018273
-20.855	0.018172
-20.850	0.018115
-20.845	0.017950
-20.840	0.017835
-20.835	0.017769
-20.830	0.017642
-20.825	0.017517
-20.820	0.017430
-20.815	0.017344
-20.810	0.017239
-20.805	0.017153
-20.800	0.017092
-20.795	0.017051
-20.790	0.017019
-20.785	0.016931
-20.780	0.016870
-20.775	0.016815
-20.770	0.016757
-20.765	0.016714
-20.760	0.016602
-20.755	0.016505
-20.750	0.016423
-20.745	0.016315
-20.740	0.016265
-20.735	0.016189
-20.730	0.016106
-20.725	0.016059
-20.720	0.015986
-20.715	0.015921
-20.710	0.015883
-20.705	0.015783
-20.700	0.015734
-20.695	0.015684
-20.690	0.015587
-20.685	0.015521
-20.680	0.015483
-20.675	0.015467
-20.670	0.015353
-20.665	0.015358
-20.660	0.015292
-20.655	0.015216
-20.650	0.015199
-20.645	0.015143
-20.640	0.015050
-20.635	0.015003
-20.630	0.015004
-20.625	0.014907
-20.620	0.014885
-20.615	0.014833
-20.610	0.014762
-20.605	0.014740
-20.600	0.014683
-20.595	0.014654
-20.590	0.014590
-20.585	0.014538
-20.580	0.014495
-20.575	0.014452
-20.570	0.014418
-20.565	0.014339
-20.560	0.014308
-20.555	0.014205
-20.550	0.014180
-20.545	0.014114
-20.540	0.014071
