PK2650 Deflection Data
Z Position (mm)	105.000	W Position (deg)	0.00
Preform ID	Diameter (mm)	Time Stamp	Start Time	Operator	Serial Number
Test 1	25	03-Nov-22 18:05:01	03-Nov-22 18:06:39	[no user]	266007708
Radius (mm)	Deflection
-26.355	-0.000029
-26.350	-0.000042
-26.345	-0.000008
-26.340	-0.000042
-26.335	-0.000008
-26.330	-0.000022
-26.325	-0.000029
-26.320	-0.000009
-26.315	-0.000002
-26.310	-0.000002
-26.305	0.000011
-26.300	-0.000009
-26.295	0.000011
-26.290	-0.000002
-26.285	-0.000030
-26.280	0.000004
-26.275	-0.000057
-26.270	-0.000029
-26.265	-0.000030
-26.260	0.000004
-26.255	0.000018
-26.250	-0.000009
-26.245	-0.000010
-26.240	-0.000003
-26.235	-0.000030
-26.230	-0.000010
-26.225	-0.000030
-26.220	-0.000023
-26.215	-0.000023
-26.210	-0.000017
-26.205	0.000011
-26.200	-0.000037
-26.195	-0.000017
-26.190	0.000004
-26.185	-0.000044
-26.180	-0.000031
-26.175	-0.000004
-26.170	-0.000031
-26.165	-0.000031
-26.160	-0.000017
-26.155	-0.000004
-26.150	-0.000038
-26.145	-0.000017
-26.140	-0.000031
-26.135	-0.000024
-26.130	-0.000024
-26.125	-0.000031
-26.120	-0.000017
-26.115	-0.000004
-26.110	-0.000011
-26.105	0.000003
-26.100	-0.000031
-26.095	-0.000011
-26.090	-0.000031
-26.085	-0.000025
-26.080	-0.000018
-26.075	-0.000045
-26.070	-0.000038
-26.065	-0.000011
-26.060	0.000016
-26.055	0.000009
-26.050	-0.000011
-26.045	0.000002
-26.040	-0.000018
-26.035	-0.000025
-26.030	0.000023
-26.025	-0.000012
-26.020	-0.000032
-26.015	-0.000025
-26.010	-0.000025
-26.005	-0.000025
-26.000	-0.000011
-25.995	-0.000025
-25.990	-0.000012
-25.985	-0.000018
-25.980	0.000016
-25.975	-0.000005
-25.970	-0.000011
-25.965	-0.000025
-25.960	-0.000025
-25.955	-0.000025
-25.950	-0.000019
-25.945	-0.000032
-25.940	-0.000032
-25.935	-0.000018
-25.930	0.000002
-25.925	-0.000012
-25.920	-0.000005
-25.915	-0.000005
-25.910	0.000001
-25.905	0.000008
-25.900	-0.000005
-25.895	-0.000026
-25.890	0.000001
-25.885	-0.000026
-25.880	-0.000026
-25.875	-0.000026
-25.870	-0.000026
-25.865	-0.000006
-25.860	-0.000013
-25.855	0.000008
-25.850	0.000008
-25.845	0.000001
-25.840	-0.000026
-25.835	-0.000013
-25.830	-0.000019
-25.825	-0.000054
-25.820	-0.000033
-25.815	-0.000033
-25.810	-0.000033
-25.805	0.000001
-25.800	-0.000012
-25.795	-0.000020
-25.790	-0.000020
-25.785	-0.000006
-25.780	-0.000006
-25.775	0.000001
-25.770	0.000000
-25.765	0.000000
-25.760	-0.000027
-25.755	-0.000041
-25.750	-0.000006
-25.745	-0.000020
-25.740	-0.000026
-25.735	-0.000020
-25.730	-0.000020
-25.725	-0.000007
-25.720	0.000000
-25.715	-0.000013
-25.710	-0.000013
-25.705	-0.000034
-25.700	0.000000
-25.695	-0.000027
-25.690	-0.000013
-25.685	-0.000014
-25.680	-0.000014
-25.675	-0.000034
-25.670	-0.000040
-25.665	-0.000013
-25.660	-0.000014
-25.655	-0.000000
-25.650	0.000007
-25.645	-0.000007
-25.640	-0.000021
-25.635	0.000006
-25.630	-0.000000
-25.625	-0.000021
-25.620	-0.000034
-25.615	-0.000021
-25.610	-0.000041
-25.605	-0.000020
-25.600	-0.000027
-25.595	-0.000007
-25.590	-0.000014
-25.585	-0.000007
-25.580	-0.000014
-25.575	-0.000007
-25.570	-0.000021
-25.565	-0.000041
-25.560	-0.000028
-25.555	-0.000001
-25.550	-0.000001
-25.545	-0.000008
-25.540	-0.000000
-25.535	-0.000021
-25.530	-0.000014
-25.525	-0.000014
-25.520	0.000013
-25.515	-0.000021
-25.510	-0.000001
-25.505	-0.000028
-25.500	-0.000015
-25.495	0.000006
-25.490	0.000012
-25.485	-0.000049
-25.480	0.000006
-25.475	-0.000001
-25.470	-0.000035
-25.465	0.000013
-25.460	-0.000022
-25.455	-0.000001
-25.450	0.000013
-25.445	-0.000015
-25.440	-0.000008
-25.435	-0.000008
-25.430	-0.000008
-25.425	-0.000015
-25.420	-0.000029
-25.415	-0.000022
-25.410	-0.000022
-25.405	-0.000028
-25.400	0.000019
-25.395	-0.000015
-25.390	-0.000042
-25.385	-0.000008
-25.380	-0.000015
-25.375	-0.000022
-25.370	0.000012
-25.365	-0.000015
-25.360	-0.000009
-25.355	-0.000022
-25.350	0.000005
-25.345	-0.000002
-25.340	-0.000015
-25.335	-0.000002
-25.330	-0.000002
-25.325	0.000005
-25.320	0.000025
-25.315	-0.000029
-25.310	0.000012
-25.305	-0.000009
-25.300	-0.000015
-25.295	-0.000002
-25.290	-0.000022
-25.285	-0.000043
-25.280	-0.000009
-25.275	-0.000016
-25.270	-0.000049
-25.265	-0.000029
-25.260	-0.000036
-25.255	-0.000029
-25.250	0.000018
-25.245	-0.000003
-25.240	0.000011
-25.235	-0.000009
-25.230	-0.000002
-25.225	-0.000016
-25.220	-0.000009
-25.215	-0.000023
-25.210	-0.000023
-25.205	-0.000022
-25.200	-0.000002
-25.195	-0.000016
-25.190	0.000004
-25.185	0.000025
-25.180	-0.000009
-25.175	-0.000016
-25.170	0.000004
-25.165	-0.000009
-25.160	-0.000016
-25.155	-0.000030
-25.150	0.000004
-25.145	-0.000010
-25.140	-0.000023
-25.135	0.000004
-25.130	-0.000016
-25.125	0.000017
-25.120	-0.000003
-25.115	0.000024
-25.110	0.000024
-25.105	-0.000010
-25.100	0.000017
-25.095	-0.000017
-25.090	-0.000010
-25.085	-0.000017
-25.080	-0.000017
-25.075	-0.000030
-25.070	-0.000017
-25.065	0.000010
-25.060	0.000003
-25.055	0.000017
-25.050	-0.000024
-25.045	-0.000003
-25.040	0.000024
-25.035	-0.000003
-25.030	0.000010
-25.025	-0.000030
-25.020	-0.000017
-25.015	-0.000044
-25.010	-0.000037
-25.005	-0.000010
-25.000	-0.000017
-24.995	0.000003
-24.990	-0.000024
-24.985	0.000017
-24.980	0.000010
-24.975	0.000003
-24.970	-0.000031
-24.965	-0.000004
-24.960	-0.000004
-24.955	-0.000031
-24.950	-0.000045
-24.945	-0.000024
-24.940	0.000003
-24.935	-0.000017
-24.930	0.000023
-24.925	-0.000004
-24.920	0.000023
-24.915	0.000010
-24.910	-0.000011
-24.905	-0.000004
-24.900	-0.000031
-24.895	0.000003
-24.890	-0.000038
-24.885	-0.000031
-24.880	-0.000058
-24.875	-0.000004
-24.870	-0.000017
-24.865	-0.000010
-24.860	0.000003
-24.855	0.000016
-24.850	-0.000004
-24.845	0.000010
-24.840	0.000003
-24.835	-0.000011
-24.830	0.000009
-24.825	0.000030
-24.820	-0.000018
-24.815	-0.000011
-24.810	-0.000011
-24.805	-0.000024
-24.800	-0.000045
-24.795	-0.000011
-24.790	0.000003
-24.785	0.000016
-24.780	0.000003
-24.775	0.000016
-24.770	0.000016
-24.765	-0.000038
-24.760	0.000003
-24.755	-0.000025
-24.750	-0.000011
-24.745	0.000002
-24.740	-0.000011
-24.735	-0.000011
-24.730	0.000030
-24.725	0.000002
-24.720	-0.000011
-24.715	-0.000011
-24.710	0.000029
-24.705	0.000009
-24.700	0.000002
-24.695	-0.000005
-24.690	0.000009
-24.685	-0.000018
-24.680	0.000009
-24.675	-0.000025
-24.670	-0.000018
-24.665	0.000002
-24.660	0.000002
-24.655	0.000022
-24.650	0.000016
-24.645	0.000029
-24.640	0.000002
-24.635	-0.000032
-24.630	0.000002
-24.625	-0.000005
-24.620	0.000002
-24.615	0.000002
-24.610	-0.000012
-24.605	0.000016
-24.600	0.000002
-24.595	-0.000005
-24.590	-0.000012
-24.585	0.000029
-24.580	-0.000005
-24.575	-0.000005
-24.570	0.000029
-24.565	-0.000005
-24.560	0.000002
-24.555	-0.000005
-24.550	-0.000019
-24.545	-0.000005
-24.540	-0.000005
-24.535	0.000002
-24.530	0.000029
-24.525	0.000015
-24.520	0.000036
-24.515	0.000015
-24.510	0.000002
-24.505	0.000008
-24.500	0.000015
-24.495	0.000015
-24.490	-0.000012
-24.485	-0.000005
-24.480	0.000015
-24.475	0.000009
-24.470	0.000022
-24.465	0.000022
-24.460	0.000029
-24.455	0.000001
-24.450	0.000015
-24.445	0.000001
-24.440	0.000049
-24.435	0.000001
-24.430	0.000008
-24.425	-0.000013
-24.420	0.000001
-24.415	-0.000026
-24.410	0.000022
-24.405	-0.000026
-24.400	-0.000012
-24.395	-0.000033
-24.390	0.000028
-24.385	0.000021
-24.380	0.000008
-24.375	0.000035
-24.370	0.000035
-24.365	-0.000013
-24.360	0.000021
-24.355	0.000021
-24.350	-0.000006
-24.345	0.000014
-24.340	0.000008
-24.335	0.000022
-24.330	0.000001
-24.325	0.000014
-24.320	0.000007
-24.315	0.000001
-24.310	0.000021
-24.305	0.000000
-24.300	0.000007
-24.295	0.000034
-24.290	-0.000013
-24.285	0.000000
-24.280	0.000014
-24.275	0.000021
-24.270	0.000028
-24.265	-0.000006
-24.260	0.000007
-24.255	0.000041
-24.250	0.000027
-24.245	0.000007
-24.240	0.000014
-24.235	0.000021
-24.230	-0.000027
-24.225	-0.000007
-24.220	0.000014
-24.215	0.000014
-24.210	0.000014
-24.205	0.000000
-24.200	0.000007
-24.195	0.000020
-24.190	0.000027
-24.185	0.000041
-24.180	0.000034
-24.175	0.000014
-24.170	0.000020
-24.165	0.000040
-24.160	-0.000007
-24.155	-0.000014
-24.150	0.000020
-24.145	0.000027
-24.140	0.000007
-24.135	0.000013
-24.130	0.000027
-24.125	0.000033
-24.120	0.000006
-24.115	-0.000000
-24.110	0.000013
-24.105	-0.000000
-24.100	0.000027
-24.095	-0.000007
-24.090	-0.000001
-24.085	-0.000007
-24.080	-0.000001
-24.075	0.000007
-24.070	-0.000014
-24.065	0.000027
-24.060	0.000026
-24.055	0.000026
-24.050	0.000026
-24.045	0.000019
-24.040	0.000020
-24.035	-0.000001
-24.030	0.000026
-24.025	0.000012
-24.020	-0.000008
-24.015	-0.000008
-24.010	-0.000021
-24.005	-0.000014
-24.000	0.000006
-23.995	0.000019
-23.990	0.000033
-23.985	0.000040
-23.980	0.000019
-23.975	-0.000008
-23.970	-0.000008
-23.965	0.000012
-23.960	0.000012
-23.955	0.000019
-23.950	-0.000015
-23.945	-0.000002
-23.940	-0.000015
-23.935	0.000019
-23.930	0.000019
-23.925	0.000032
-23.920	0.000019
-23.915	-0.000002
-23.910	0.000018
-23.905	-0.000009
-23.900	0.000005
-23.895	-0.000002
-23.890	-0.000036
-23.885	-0.000009
-23.880	0.000004
-23.875	-0.000002
-23.870	-0.000009
-23.865	0.000025
-23.860	0.000011
-23.855	0.000011
-23.850	0.000032
-23.845	0.000004
-23.840	0.000018
-23.835	0.000004
-23.830	-0.000023
-23.825	0.000018
-23.820	-0.000023
-23.815	-0.000002
-23.810	-0.000016
-23.805	-0.000002
-23.800	0.000011
-23.795	0.000011
-23.790	0.000004
-23.785	0.000011
-23.780	0.000038
-23.775	0.000031
-23.770	0.000011
-23.765	-0.000037
-23.760	0.000004
-23.755	0.000004
-23.750	-0.000003
-23.745	-0.000037
-23.740	-0.000009
-23.735	-0.000010
-23.730	-0.000003
-23.725	0.000017
-23.720	0.000004
-23.715	-0.000003
-23.710	-0.000017
-23.705	-0.000003
-23.700	0.000017
-23.695	-0.000024
-23.690	-0.000024
-23.685	-0.000004
-23.680	0.000017
-23.675	0.000004
-23.670	0.000017
-23.665	-0.000017
-23.660	0.000024
-23.655	-0.000010
-23.650	-0.000003
-23.645	0.000003
-23.640	0.000003
-23.635	-0.000004
-23.630	0.000003
-23.625	0.000010
-23.620	-0.000038
-23.615	-0.000024
-23.610	-0.000017
-23.605	-0.000038
-23.600	-0.000010
-23.595	-0.000031
-23.590	0.000003
-23.585	-0.000004
-23.580	-0.000018
-23.575	-0.000018
-23.570	-0.000018
-23.565	-0.000045
-23.560	0.000003
-23.555	-0.000025
-23.550	-0.000011
-23.545	-0.000045
-23.540	-0.000024
-23.535	-0.000031
-23.530	-0.000032
-23.525	-0.000025
-23.520	-0.000038
-23.515	-0.000011
-23.510	-0.000025
-23.505	-0.000039
-23.500	-0.000039
-23.495	-0.000046
-23.490	-0.000059
-23.485	-0.000080
-23.480	-0.000059
-23.475	-0.000066
-23.470	-0.000059
-23.465	-0.000046
-23.460	-0.000046
-23.455	-0.000046
-23.450	-0.000059
-23.445	-0.000025
-23.440	-0.000025
-23.435	-0.000046
-23.430	-0.000025
-23.425	-0.000019
-23.420	-0.000019
-23.415	-0.000066
-23.410	-0.000046
-23.405	-0.000066
-23.400	-0.000012
-23.395	-0.000033
-23.390	-0.000039
-23.385	-0.000026
-23.380	-0.000005
-23.375	-0.000019
-23.370	-0.000060
-23.365	-0.000033
-23.360	-0.000033
-23.355	-0.000033
-23.350	-0.000047
-23.345	-0.000053
-23.340	-0.000067
-23.335	-0.000053
-23.330	-0.000054
-23.325	0.000001
-23.320	-0.000047
-23.315	-0.000026
-23.310	-0.000033
-23.305	-0.000060
-23.300	-0.000033
-23.295	0.000001
-23.290	-0.000054
-23.285	-0.000054
-23.280	-0.000060
-23.275	-0.000047
-23.270	-0.000026
-23.265	-0.000047
-23.260	-0.000034
-23.255	-0.000047
-23.250	-0.000040
-23.245	-0.000020
-23.240	-0.000007
-23.235	-0.000034
-23.230	-0.000041
-23.225	-0.000054
-23.220	-0.000054
-23.215	-0.000075
-23.210	-0.000047
-23.205	-0.000034
-23.200	-0.000034
-23.195	-0.000054
-23.190	-0.000034
-23.185	-0.000014
-23.180	-0.000034
-23.175	-0.000027
-23.170	-0.000048
-23.165	-0.000041
-23.160	-0.000048
-23.155	-0.000055
-23.150	-0.000048
-23.145	-0.000041
-23.140	-0.000054
-23.135	-0.000041
-23.130	-0.000062
-23.125	-0.000041
-23.120	-0.000034
-23.115	-0.000048
-23.110	-0.000034
-23.105	-0.000048
-23.100	-0.000062
-23.095	-0.000089
-23.090	-0.000028
-23.085	-0.000055
-23.080	-0.000075
-23.075	-0.000062
-23.070	-0.000048
-23.065	-0.000069
-23.060	-0.000055
-23.055	-0.000035
-23.050	-0.000048
-23.045	-0.000035
-23.040	-0.000035
-23.035	-0.000035
-23.030	-0.000055
-23.025	-0.000035
-23.020	-0.000015
-23.015	-0.000069
-23.010	-0.000028
-23.005	-0.000048
-23.000	-0.000021
-22.995	-0.000015
-22.990	-0.000042
-22.985	-0.000042
-22.980	-0.000028
-22.975	-0.000028
-22.970	-0.000035
-22.965	-0.000049
-22.960	-0.000056
-22.955	-0.000042
-22.950	-0.000069
-22.945	-0.000076
-22.940	-0.000089
-22.935	-0.000035
-22.930	-0.000036
-22.925	-0.000049
-22.920	-0.000069
-22.915	-0.000042
-22.910	-0.000015
-22.905	-0.000036
-22.900	-0.000049
-22.895	-0.000049
-22.890	-0.000056
-22.885	-0.000036
-22.880	-0.000043
-22.875	-0.000090
-22.870	-0.000042
-22.865	-0.000063
-22.860	-0.000016
-22.855	-0.000043
-22.850	-0.000043
-22.845	-0.000022
-22.840	-0.000029
-22.835	-0.000036
-22.830	-0.000063
-22.825	-0.000050
-22.820	-0.000063
-22.815	-0.000070
-22.810	-0.000063
-22.805	-0.000084
-22.800	-0.000050
-22.795	-0.000050
-22.790	-0.000064
-22.785	-0.000050
-22.780	-0.000064
-22.775	-0.000064
-22.770	-0.000070
-22.765	-0.000043
-22.760	-0.000070
-22.755	-0.000050
-22.750	-0.000105
-22.745	-0.000030
-22.740	-0.000050
-22.735	-0.000030
-22.730	-0.000044
-22.725	-0.000030
-22.720	-0.000057
-22.715	-0.000044
-22.710	-0.000044
-22.705	-0.000037
-22.700	-0.000057
-22.695	-0.000098
-22.690	-0.000078
-22.685	-0.000044
-22.680	-0.000091
-22.675	-0.000037
-22.670	-0.000050
-22.665	-0.000051
-22.660	-0.000030
-22.655	-0.000037
-22.650	-0.000017
-22.645	-0.000058
-22.640	-0.000044
-22.635	-0.000078
-22.630	-0.000071
-22.625	-0.000051
-22.620	-0.000058
-22.615	-0.000078
-22.610	-0.000085
-22.605	-0.000057
-22.600	-0.000044
-22.595	-0.000051
-22.590	-0.000044
-22.585	-0.000078
-22.580	-0.000058
-22.575	-0.000065
-22.570	-0.000099
-22.565	-0.000051
-22.560	-0.000038
-22.555	-0.000085
-22.550	-0.000085
-22.545	-0.000078
-22.540	-0.000065
-22.535	-0.000085
-22.530	-0.000058
-22.525	-0.000052
-22.520	-0.000079
-22.515	-0.000052
-22.510	-0.000065
-22.505	-0.000065
-22.500	-0.000058
-22.495	-0.000065
-22.490	-0.000093
-22.485	-0.000072
-22.480	-0.000052
-22.475	-0.000052
-22.470	-0.000078
-22.465	-0.000072
-22.460	-0.000059
-22.455	-0.000072
-22.450	-0.000052
-22.445	-0.000079
-22.440	-0.000059
-22.435	-0.000086
-22.430	-0.000079
-22.425	-0.000066
-22.420	-0.000066
-22.415	-0.000066
-22.410	-0.000093
-22.405	-0.000065
-22.400	-0.000052
-22.395	-0.000086
-22.390	-0.000039
-22.385	-0.000032
-22.380	-0.000073
-22.375	-0.000073
-22.370	-0.000045
-22.365	-0.000052
-22.360	-0.000066
-22.355	-0.000114
-22.350	-0.000066
-22.345	-0.000086
-22.340	-0.000100
-22.335	-0.000045
-22.330	-0.000073
-22.325	-0.000073
-22.320	-0.000046
-22.315	-0.000039
-22.310	-0.000046
-22.305	-0.000073
-22.300	-0.000066
-22.295	-0.000073
-22.290	-0.000100
-22.285	-0.000080
-22.280	-0.000039
-22.275	-0.000080
-22.270	-0.000039
-22.265	-0.000087
-22.260	-0.000033
-22.255	-0.000066
-22.250	-0.000073
-22.245	-0.000067
-22.240	-0.000080
-22.235	-0.000080
-22.230	-0.000067
-22.225	-0.000094
-22.220	-0.000080
-22.215	-0.000101
-22.210	-0.000080
-22.205	-0.000073
-22.200	-0.000073
-22.195	-0.000087
-22.190	-0.000080
-22.185	-0.000053
-22.180	-0.000074
-22.175	-0.000074
-22.170	-0.000060
-22.165	-0.000101
-22.160	-0.000087
-22.155	-0.000094
-22.150	-0.000094
-22.145	-0.000067
-22.140	-0.000073
-22.135	-0.000053
-22.130	-0.000047
-22.125	-0.000067
-22.120	-0.000067
-22.115	-0.000067
-22.110	-0.000081
-22.105	-0.000115
-22.100	-0.000074
-22.095	-0.000094
-22.090	-0.000081
-22.085	-0.000074
-22.080	-0.000054
-22.075	-0.000080
-22.070	-0.000074
-22.065	-0.000047
-22.060	-0.000047
-22.055	-0.000047
-22.050	-0.000081
-22.045	-0.000081
-22.040	-0.000074
-22.035	-0.000034
-22.030	-0.000068
-22.025	-0.000088
-22.020	-0.000095
-22.015	-0.000054
-22.010	-0.000074
-22.005	-0.000054
-22.000	-0.000040
-21.995	-0.000068
-21.990	-0.000088
-21.985	-0.000088
-21.980	-0.000047
-21.975	-0.000075
-21.970	-0.000068
-21.965	-0.000075
-21.960	-0.000075
-21.955	-0.000068
-21.950	-0.000095
-21.945	-0.000040
-21.940	-0.000088
-21.935	-0.000061
-21.930	-0.000095
-21.925	-0.000054
-21.920	-0.000075
-21.915	-0.000027
-21.910	-0.000061
-21.905	-0.000041
-21.900	-0.000075
-21.895	-0.000082
-21.890	-0.000075
-21.885	-0.000068
-21.880	-0.000068
-21.875	-0.000102
-21.870	-0.000061
-21.865	-0.000075
-21.860	-0.000102
-21.855	-0.000068
-21.850	-0.000055
-21.845	-0.000061
-21.840	-0.000082
-21.835	-0.000089
-21.830	-0.000062
-21.825	-0.000089
-21.820	-0.000062
-21.815	-0.000055
-21.810	-0.000054
-21.805	-0.000082
-21.800	-0.000055
-21.795	-0.000068
-21.790	-0.000068
-21.785	-0.000062
-21.780	-0.000062
-21.775	-0.000082
-21.770	-0.000055
-21.765	-0.000048
-21.760	-0.000069
-21.755	-0.000069
-21.750	-0.000048
-21.745	-0.000041
-21.740	-0.000068
-21.735	-0.000041
-21.730	-0.000028
-21.725	-0.000069
-21.720	-0.000021
-21.715	-0.000041
-21.710	-0.000028
-21.705	-0.000042
-21.700	-0.000055
-21.695	-0.000055
-21.690	-0.000083
-21.685	-0.000055
-21.680	-0.000082
-21.675	-0.000055
-21.670	-0.000069
-21.665	-0.000076
-21.660	-0.000049
-21.655	-0.000001
-21.650	-0.000042
-21.645	-0.000049
-21.640	-0.000069
-21.635	-0.000056
-21.630	-0.000029
-21.625	-0.000076
-21.620	-0.000042
-21.615	-0.000097
-21.610	-0.000028
-21.605	-0.000069
-21.600	-0.000062
-21.595	-0.000035
-21.590	-0.000049
-21.585	-0.000022
-21.580	-0.000028
-21.575	-0.000022
-21.570	-0.000069
-21.565	-0.000056
-21.560	-0.000069
-21.555	-0.000022
-21.550	-0.000042
-21.545	-0.000076
-21.540	-0.000035
-21.535	-0.000028
-21.530	-0.000056
-21.525	-0.000022
-21.520	-0.000022
-21.515	-0.000036
-21.510	-0.000043
-21.505	-0.000043
-21.500	-0.000036
-21.495	-0.000009
-21.490	-0.000002
-21.485	-0.000050
-21.480	-0.000015
-21.475	0.000005
-21.470	0.000005
-21.465	0.000005
-21.460	0.000032
-21.455	0.000046
-21.450	0.000067
-21.445	0.000115
-21.440	0.000190
-21.435	0.000340
-21.430	0.000553
-21.425	0.000896
-21.420	0.001295
-21.415	0.001889
-21.410	0.002716
-21.405	0.003737
-21.400	0.005013
-21.395	0.006503
-21.390	0.008261
-21.385	0.010330
-21.380	0.012781
-21.375	0.015604
-21.370	0.018592
-21.365	0.021843
-21.360	0.025308
-21.355	0.028910
-21.350	0.032615
-21.345	0.036231
-21.340	0.039900
-21.335	0.043647
-21.330	0.047096
-21.325	0.050187
-21.320	0.050656
-21.315	0.049616
-21.310	0.048788
-21.305	0.047165
-21.300	0.045355
-21.295	0.044455
-21.290	0.043557
-21.285	0.042703
-21.280	0.042044
-21.275	0.041641
-21.270	0.040339
-21.265	0.039007
-21.260	0.038066
-21.255	0.037171
-21.250	0.036394
-21.245	0.035924
-21.240	0.035122
-21.235	0.034332
-21.230	0.034149
-21.225	0.033466
-21.220	0.032912
-21.215	0.032408
-21.210	0.031929
-21.205	0.031506
-21.200	0.031200
-21.195	0.030929
-21.190	0.030690
-21.185	0.030530
-21.180	0.030030
-21.175	0.029141
-21.170	0.028658
-21.165	0.028405
-21.160	0.028168
-21.155	0.027693
-21.150	0.027294
-21.145	0.027172
-21.140	0.027191
-21.135	0.027430
-21.130	0.027277
-21.125	0.026375
-21.120	0.025805
-21.115	0.025672
-21.110	0.025532
-21.105	0.025260
-21.100	0.025045
-21.095	0.024947
-21.090	0.024704
-21.085	0.024340
-21.080	0.024077
-21.075	0.023923
-21.070	0.023707
-21.065	0.023469
-21.060	0.023232
-21.055	0.023015
-21.050	0.022857
-21.045	0.022731
-21.040	0.022605
-21.035	0.022452
-21.030	0.022273
-21.025	0.022126
-21.020	0.021991
-21.015	0.021863
-21.010	0.021749
-21.005	0.021703
-21.000	0.021627
-20.995	0.021543
-20.990	0.021350
-20.985	0.021140
-20.980	0.020929
-20.975	0.020816
-20.970	0.020671
-20.965	0.020573
-20.960	0.020430
-20.955	0.020234
-20.950	0.020176
-20.945	0.020053
-20.940	0.019907
-20.935	0.019841
-20.930	0.019686
-20.925	0.019616
-20.920	0.019486
-20.915	0.019354
-20.910	0.019257
-20.905	0.019158
-20.900	0.019039
-20.895	0.018957
-20.890	0.018813
-20.885	0.018710
-20.880	0.018641
-20.875	0.018551
-20.870	0.018480
-20.865	0.018421
-20.860	0.018349
-20.855	0.018243
-20.850	0.018147
-20.845	0.018016
-20.840	0.017931
-20.835	0.017789
-20.830	0.017692
-20.825	0.017599
-20.820	0.017495
-20.815	0.017394
-20.810	0.017339
-20.805	0.017255
-20.800	0.017179
-20.795	0.017149
-20.790	0.017110
-20.785	0.017020
-20.780	0.016946
-20.775	0.016881
-20.770	0.016828
