PK2650 Power Data
Z Position (mm)	110.000	W Position (deg)	288.00
Preform ID	Diameter (mm)	Time Stamp	Start Time	Operator	Serial Number
Test 1	25	03-Nov-22 18:05:01	03-Nov-22 18:08:15	[no user]	266007708
Radius (mm)	Power
-26.260	83125.7
-26.255	83114.7
-26.250	83116.7
-26.245	83114.7
-26.240	83115.7
-26.235	83121.7
-26.230	83118.7
-26.225	83097.7
-26.220	83092.7
-26.215	83125.7
-26.210	83130.7
-26.205	83119.7
-26.200	83121.7
-26.195	83118.7
-26.190	83129.7
-26.185	83123.7
-26.180	83121.7
-26.175	83131.7
-26.170	83141.7
-26.165	83144.7
-26.160	83122.7
-26.155	83110.7
-26.150	83124.7
-26.145	83149.7
-26.140	83151.7
-26.135	83149.7
-26.130	83158.7
-26.125	83158.7
-26.120	83155.7
-26.115	83155.7
-26.110	83143.7
-26.105	83145.7
-26.100	83151.7
-26.095	83133.7
-26.090	83131.7
-26.085	83138.7
-26.080	83168.7
-26.075	83158.7
-26.070	83160.7
-26.065	83158.7
-26.060	83155.7
-26.055	83154.7
-26.050	83156.7
-26.045	83147.7
-26.040	83162.7
-26.035	83165.7
-26.030	83174.7
-26.025	83144.7
-26.020	83137.7
-26.015	83161.7
-26.010	83171.7
-26.005	83171.7
-26.000	83180.6
-25.995	83180.6
-25.990	83175.7
-25.985	83166.7
-25.980	83169.7
-25.975	83166.7
-25.970	83169.7
-25.965	83164.7
-25.960	83145.7
-25.955	83148.7
-25.950	83169.7
-25.945	83190.6
-25.940	83184.6
-25.935	83180.6
-25.930	83174.7
-25.925	83168.7
-25.920	83174.7
-25.915	83171.7
-25.910	83174.7
-25.905	83176.7
-25.900	83188.6
-25.895	83181.6
-25.890	83160.7
-25.885	83153.7
-25.880	83177.7
-25.875	83185.6
-25.870	83180.6
-25.865	83184.6
-25.860	83190.6
-25.855	83186.6
-25.850	83187.6
-25.845	83182.6
-25.840	83178.6
-25.835	83174.7
-25.830	83174.7
-25.825	83141.7
-25.820	83154.7
-25.815	83189.6
-25.810	83196.6
-25.805	83190.6
-25.800	83185.6
-25.795	83179.6
-25.790	83180.6
-25.785	83164.7
-25.780	83172.7
-25.775	83166.7
-25.770	83176.7
-25.765	83189.6
-25.760	83178.6
-25.755	83156.7
-25.750	83170.7
-25.745	83189.6
-25.740	83192.6
-25.735	83190.6
-25.730	83187.6
-25.725	83188.6
-25.720	83187.6
-25.715	83190.6
-25.710	83187.6
-25.705	83180.7
-25.700	83191.6
-25.695	83163.7
-25.690	83151.7
-25.685	83158.7
-25.680	83196.6
-25.675	83182.6
-25.670	83194.6
-25.665	83178.7
-25.660	83183.6
-25.655	83167.7
-25.650	83176.7
-25.645	83165.7
-25.640	83181.7
-25.635	83187.6
-25.630	83182.6
-25.625	83163.7
-25.620	83152.7
-25.615	83182.6
-25.610	83182.6
-25.605	83188.6
-25.600	83188.6
-25.595	83178.6
-25.590	83187.6
-25.585	83183.7
-25.580	83183.6
-25.575	83180.7
-25.570	83170.7
-25.565	83175.7
-25.560	83148.7
-25.555	83138.7
-25.550	83169.7
-25.545	83180.6
-25.540	83178.6
-25.535	83177.7
-25.530	83177.7
-25.525	83173.7
-25.520	83168.7
-25.515	83163.7
-25.510	83164.7
-25.505	83169.7
-25.500	83183.6
-25.495	83170.7
-25.490	83160.7
-25.485	83157.7
-25.480	83192.6
-25.475	83183.6
-25.470	83181.6
-25.465	83174.7
-25.460	83187.6
-25.455	83175.7
-25.450	83179.7
-25.445	83181.7
-25.440	83180.7
-25.435	83182.6
-25.430	83164.7
-25.425	83137.7
-25.420	83138.7
-25.415	83167.7
-25.410	83174.7
-25.405	83178.7
-25.400	83179.6
-25.395	83171.7
-25.390	83180.6
-25.385	83159.7
-25.380	83162.7
-25.375	83156.7
-25.370	83170.7
-25.365	83173.7
-25.360	83157.7
-25.355	83142.7
-25.350	83166.7
-25.345	83180.6
-25.340	83175.7
-25.335	83176.6
-25.330	83170.7
-25.325	83174.7
-25.320	83165.7
-25.315	83165.7
-25.310	83177.7
-25.305	83167.7
-25.300	83175.7
-25.295	83144.7
-25.290	83130.7
-25.285	83137.7
-25.280	83169.7
-25.275	83166.7
-25.270	83170.7
-25.265	83170.7
-25.260	83169.7
-25.255	83160.7
-25.250	83164.7
-25.245	83158.7
-25.240	83165.7
-25.235	83165.7
-25.230	83162.7
-25.225	83146.7
-25.220	83139.7
-25.215	83174.7
-25.210	83184.6
-25.205	83178.7
-25.200	83169.7
-25.195	83166.7
-25.190	83164.7
-25.185	83155.7
-25.180	83157.7
-25.175	83160.7
-25.170	83161.7
-25.165	83160.7
-25.160	83130.7
-25.155	83132.7
-25.150	83148.7
-25.145	83157.7
-25.140	83155.7
-25.135	83157.7
-25.130	83154.7
-25.125	83154.7
-25.120	83149.7
-25.115	83145.7
-25.110	83155.7
-25.105	83151.7
-25.100	83160.7
-25.095	83140.7
-25.090	83128.7
-25.085	83141.7
-25.080	83169.7
-25.075	83162.7
-25.070	83171.7
-25.065	83163.7
-25.060	83156.7
-25.055	83148.7
-25.050	83143.7
-25.045	83146.7
-25.040	83156.7
-25.035	83157.7
-25.030	83146.7
-25.025	83115.7
-25.020	83112.7
-25.015	83149.7
-25.010	83146.7
-25.005	83147.7
-25.000	83147.7
-24.995	83155.7
-24.990	83144.7
-24.985	83141.7
-24.980	83145.7
-24.975	83143.7
-24.970	83153.7
-24.965	83149.7
-24.960	83124.7
-24.955	83115.7
-24.950	83140.7
-24.945	83154.7
-24.940	83156.7
-24.935	83161.7
-24.930	83152.7
-24.925	83143.7
-24.920	83134.7
-24.915	83138.7
-24.910	83144.7
-24.905	83130.7
-24.900	83152.7
-24.895	83123.7
-24.890	83106.7
-24.885	83116.7
-24.880	83152.7
-24.875	83132.7
-24.870	83142.7
-24.865	83135.7
-24.860	83140.7
-24.855	83133.7
-24.850	83136.7
-24.845	83129.7
-24.840	83131.7
-24.835	83140.7
-24.830	83132.7
-24.825	83103.7
-24.820	83112.7
-24.815	83142.7
-24.810	83147.7
-24.805	83141.7
-24.800	83143.7
-24.795	83136.7
-24.790	83136.7
-24.785	83125.7
-24.780	83125.7
-24.775	83120.7
-24.770	83134.7
-24.765	83122.7
-24.760	83105.7
-24.755	83090.7
-24.750	83122.7
-24.745	83128.7
-24.740	83130.7
-24.735	83118.7
-24.730	83115.7
-24.725	83117.7
-24.720	83108.7
-24.715	83120.7
-24.710	83119.7
-24.705	83116.7
-24.700	83125.7
-24.695	83102.7
-24.690	83086.7
-24.685	83093.7
-24.680	83119.7
-24.675	83123.7
-24.670	83133.7
-24.665	83124.7
-24.660	83124.7
-24.655	83105.7
-24.650	83114.7
-24.645	83105.7
-24.640	83112.7
-24.635	83111.7
-24.630	83097.7
-24.625	83074.7
-24.620	83075.7
-24.615	83108.7
-24.610	83113.7
-24.605	83104.7
-24.600	83105.7
-24.595	83095.7
-24.590	83089.7
-24.585	83093.7
-24.580	83103.7
-24.575	83099.7
-24.570	83116.7
-24.565	83108.7
-24.560	83086.7
-24.555	83067.7
-24.550	83100.7
-24.545	83114.7
-24.540	83117.7
-24.535	83119.7
-24.530	83111.7
-24.525	83107.7
-24.520	83102.7
-24.515	83092.7
-24.510	83096.7
-24.505	83097.7
-24.500	83099.7
-24.495	83064.7
-24.490	83060.7
-24.485	83083.7
-24.480	83103.7
-24.475	83097.7
-24.470	83099.7
-24.465	83080.7
-24.460	83087.7
-24.455	83082.7
-24.450	83081.7
-24.445	83084.7
-24.440	83095.7
-24.435	83098.7
-24.430	83091.7
-24.425	83069.7
-24.420	83056.7
-24.415	83093.7
-24.410	83091.7
-24.405	83100.7
-24.400	83098.7
-24.395	83094.7
-24.390	83090.7
-24.385	83083.7
-24.380	83089.7
-24.375	83087.7
-24.370	83084.7
-24.365	83081.7
-24.360	83056.7
-24.355	83050.8
-24.350	83082.7
-24.345	83091.7
-24.340	83090.7
-24.335	83073.7
-24.330	83077.7
-24.325	83071.7
-24.320	83070.7
-24.315	83071.7
-24.310	83072.7
-24.305	83082.7
-24.300	83095.7
-24.295	83071.7
-24.290	83054.8
-24.285	83061.7
-24.280	83092.7
-24.275	83085.7
-24.270	83094.7
-24.265	83082.7
-24.260	83083.7
-24.255	83080.7
-24.250	83080.7
-24.245	83076.7
-24.240	83082.7
-24.235	83077.7
-24.230	83066.7
-24.225	83042.8
-24.220	83054.7
-24.215	83082.7
-24.210	83089.7
-24.205	83073.7
-24.200	83077.7
-24.195	83071.7
-24.190	83074.7
-24.185	83069.7
-24.180	83065.7
-24.175	83073.7
-24.170	83082.7
-24.165	83075.7
-24.160	83055.7
-24.155	83040.8
-24.150	83074.7
-24.145	83076.7
-24.140	83086.7
-24.135	83085.7
-24.130	83085.7
-24.125	83074.7
-24.120	83076.7
-24.115	83077.7
-24.110	83074.7
-24.105	83069.7
-24.100	83075.7
-24.095	83045.8
-24.090	83041.8
-24.085	83058.7
-24.080	83084.7
-24.075	83086.7
-24.070	83088.7
-24.065	83080.7
-24.060	83071.7
-24.055	83065.7
-24.050	83069.7
-24.045	83068.7
-24.040	83074.7
-24.035	83078.7
-24.030	83067.7
-24.025	83054.8
-24.020	83052.8
-24.015	83083.7
-24.010	83084.7
-24.005	83078.7
-24.000	83077.7
-23.995	83077.7
-23.990	83076.7
-23.985	83077.7
-23.980	83076.7
-23.975	83075.7
-23.970	83075.7
-23.965	83064.7
-23.960	83040.8
-23.955	83040.8
-23.950	83072.7
-23.945	83087.7
-23.940	83078.7
-23.935	83075.7
-23.930	83071.7
-23.925	83072.7
-23.920	83068.7
-23.915	83064.7
-23.910	83065.7
-23.905	83070.7
-23.900	83076.7
-23.895	83059.7
-23.890	83052.8
-23.885	83066.7
-23.880	83089.7
-23.875	83079.7
-23.870	83084.7
-23.865	83079.7
-23.860	83091.7
-23.855	83078.7
-23.850	83081.7
-23.845	83083.7
-23.840	83078.7
-23.835	83084.7
-23.830	83059.7
-23.825	83051.8
-23.820	83061.7
-23.815	83092.7
-23.810	83083.7
-23.805	83090.7
-23.800	83094.7
-23.795	83083.7
-23.790	83090.7
-23.785	83078.7
-23.780	83091.7
-23.775	83085.7
-23.770	83097.7
-23.765	83089.7
-23.760	83078.7
-23.755	83063.7
-23.750	83103.7
-23.745	83098.7
-23.740	83100.7
-23.735	83098.7
-23.730	83098.7
-23.725	83099.7
-23.720	83097.7
-23.715	83096.7
-23.710	83093.7
-23.705	83095.7
-23.700	83098.7
-23.695	83072.7
-23.690	83062.7
-23.685	83077.7
-23.680	83097.7
-23.675	83090.7
-23.670	83097.7
-23.665	83098.7
-23.660	83091.7
-23.655	83092.7
-23.650	83092.7
-23.645	83094.7
-23.640	83098.7
-23.635	83104.7
-23.630	83090.7
-23.625	83073.7
-23.620	83077.7
-23.615	83105.7
-23.610	83109.7
-23.605	83109.7
-23.600	83114.7
-23.595	83104.7
-23.590	83102.7
-23.585	83089.7
-23.580	83095.7
-23.575	83100.7
-23.570	83094.7
-23.565	83082.7
-23.560	83061.7
-23.555	83066.7
-23.550	83097.7
-23.545	83105.7
-23.540	83103.7
-23.535	83103.7
-23.530	83100.7
-23.525	83098.7
-23.520	83096.7
-23.515	83089.7
-23.510	83098.7
-23.505	83099.7
-23.500	83116.7
-23.495	83075.7
-23.490	83074.7
-23.485	83090.7
-23.480	83124.7
-23.475	83114.7
-23.470	83119.7
-23.465	83104.7
-23.460	83111.7
-23.455	83106.7
-23.450	83113.7
-23.445	83109.7
-23.440	83109.7
-23.435	83113.7
-23.430	83086.7
-23.425	83074.7
-23.420	83088.7
-23.415	83117.7
-23.410	83113.7
-23.405	83110.7
-23.400	83109.7
-23.395	83105.7
-23.390	83109.7
-23.385	83111.7
-23.380	83112.7
-23.375	83116.7
-23.370	83124.7
-23.365	83108.7
-23.360	83092.7
-23.355	83086.7
-23.350	83127.7
-23.345	83131.7
-23.340	83138.7
-23.335	83140.7
-23.330	83131.7
-23.325	83128.7
-23.320	83123.7
-23.315	83117.7
-23.310	83132.7
-23.305	83122.7
-23.300	83127.7
-23.295	83098.7
-23.290	83096.7
-23.285	83116.7
-23.280	83133.7
-23.275	83133.7
-23.270	83120.7
-23.265	83123.7
-23.260	83113.7
-23.255	83119.7
-23.250	83123.7
-23.245	83132.7
-23.240	83139.7
-23.235	83137.7
-23.230	83124.7
-23.225	83094.7
-23.220	83113.7
-23.215	83139.7
-23.210	83145.7
-23.205	83140.7
-23.200	83148.7
-23.195	83140.7
-23.190	83137.7
-23.185	83128.7
-23.180	83139.7
-23.175	83130.7
-23.170	83144.7
-23.165	83117.7
-23.160	83110.7
-23.155	83117.7
-23.150	83152.7
-23.145	83150.7
-23.140	83147.7
-23.135	83130.7
-23.130	83132.7
-23.125	83136.7
-23.120	83138.7
-23.115	83136.7
-23.110	83132.7
-23.105	83142.7
-23.100	83145.7
-23.095	83119.7
-23.090	83114.7
-23.085	83133.7
-23.080	83159.7
-23.075	83152.7
-23.070	83151.7
-23.065	83156.7
-23.060	83147.7
-23.055	83142.7
-23.050	83145.7
-23.045	83135.7
-23.040	83141.7
-23.035	83148.7
-23.030	83129.7
-23.025	83109.7
-23.020	83133.7
-23.015	83151.7
-23.010	83150.7
-23.005	83149.7
-23.000	83146.7
-22.995	83140.7
-22.990	83137.7
-22.985	83135.7
-22.980	83146.7
-22.975	83145.7
-22.970	83150.7
-22.965	83146.7
-22.960	83128.7
-22.955	83118.7
-22.950	83153.7
-22.945	83150.7
-22.940	83161.7
-22.935	83155.7
-22.930	83154.7
-22.925	83147.7
-22.920	83144.7
-22.915	83139.7
-22.910	83149.7
-22.905	83143.7
-22.900	83149.7
-22.895	83118.7
-22.890	83114.7
-22.885	83139.7
-22.880	83163.7
-22.875	83151.7
-22.870	83146.7
-22.865	83145.7
-22.860	83137.7
-22.855	83134.7
-22.850	83144.7
-22.845	83137.7
-22.840	83153.7
-22.835	83162.7
-22.830	83140.7
-22.825	83116.7
-22.820	83129.7
-22.815	83153.7
-22.810	83156.7
-22.805	83155.7
-22.800	83151.7
-22.795	83155.7
-22.790	83150.7
-22.785	83149.7
-22.780	83153.7
-22.775	83152.7
-22.770	83152.7
-22.765	83135.7
-22.760	83114.7
-22.755	83120.7
-22.750	83157.7
-22.745	83153.7
-22.740	83145.7
-22.735	83146.7
-22.730	83149.7
-22.725	83134.7
-22.720	83140.7
-22.715	83140.7
-22.710	83148.7
-22.705	83150.7
-22.700	83161.7
-22.695	83132.7
-22.690	83127.7
-22.685	83145.7
-22.680	83164.7
-22.675	83153.7
-22.670	83171.7
-22.665	83157.7
-22.660	83159.7
-22.655	83158.7
-22.650	83153.7
-22.645	83155.7
-22.640	83145.7
-22.635	83147.7
-22.630	83130.7
-22.625	83123.7
-22.620	83137.7
-22.615	83152.7
-22.610	83157.7
-22.605	83150.7
-22.600	83150.7
-22.595	83151.7
-22.590	83152.7
-22.585	83142.7
-22.580	83154.7
-22.575	83151.7
-22.570	83166.7
-22.565	83148.7
-22.560	83135.7
-22.555	83123.7
-22.550	83158.7
-22.545	83157.7
-22.540	83160.7
-22.535	83156.7
-22.530	83165.7
-22.525	83155.7
-22.520	83163.7
-22.515	83155.7
-22.510	83155.7
-22.505	83153.7
-22.500	83146.7
-22.495	83125.7
-22.490	83125.7
-22.485	83154.7
-22.480	83162.7
-22.475	83162.7
-22.470	83152.7
-22.465	83154.7
-22.460	83156.7
-22.455	83149.7
-22.450	83148.7
-22.445	83148.7
-22.440	83163.7
-22.435	83162.7
-22.430	83152.7
-22.425	83136.7
-22.420	83149.7
-22.415	83161.7
-22.410	83179.7
-22.405	83162.7
-22.400	83163.7
-22.395	83162.7
-22.390	83167.7
-22.385	83163.7
-22.380	83162.7
-22.375	83156.7
-22.370	83160.7
-22.365	83140.7
-22.360	83129.7
-22.355	83141.7
-22.350	83166.7
-22.345	83169.7
-22.340	83159.7
-22.335	83157.7
-22.330	83158.7
-22.325	83154.7
-22.320	83163.7
-22.315	83153.7
-22.310	83166.7
-22.305	83160.7
-22.300	83163.7
-22.295	83136.7
-22.290	83140.7
-22.285	83162.7
-22.280	83174.7
-22.275	83174.7
-22.270	83172.7
-22.265	83162.7
-22.260	83164.7
-22.255	83155.7
-22.250	83161.7
-22.245	83157.7
-22.240	83167.7
-22.235	83161.7
-22.230	83132.7
-22.225	83117.7
-22.220	83145.7
-22.215	83164.7
-22.210	83153.7
-22.205	83157.7
-22.200	83156.7
-22.195	83156.7
-22.190	83159.7
-22.185	83151.7
-22.180	83154.7
-22.175	83164.7
-22.170	83168.7
-22.165	83154.7
-22.160	83133.7
-22.155	83134.7
-22.150	83167.7
-22.145	83166.7
-22.140	83163.7
-22.135	83167.7
-22.130	83163.7
-22.125	83157.7
-22.120	83157.7
-22.115	83144.7
-22.110	83157.7
-22.105	83161.7
-22.100	83150.7
-22.095	83124.7
-22.090	83127.7
-22.085	83151.7
-22.080	83161.7
-22.075	83152.7
-22.070	83153.7
-22.065	83156.7
-22.060	83147.7
-22.055	83148.7
-22.050	83143.7
-22.045	83140.7
-22.040	83153.7
-22.035	83152.7
-22.030	83135.7
-22.025	83123.7
-22.020	83137.7
-22.015	83154.7
-22.010	83164.7
-22.005	83153.7
-22.000	83158.7
-21.995	83146.7
-21.990	83149.7
-21.985	83147.7
-21.980	83143.7
-21.975	83151.7
-21.970	83147.7
-21.965	83129.7
-21.960	83113.7
-21.955	83130.7
-21.950	83162.7
-21.945	83149.7
-21.940	83149.7
-21.935	83146.7
-21.930	83146.7
-21.925	83144.7
-21.920	83145.7
-21.915	83143.7
-21.910	83144.7
-21.905	83149.7
-21.900	83148.7
-21.895	83124.7
-21.890	83117.7
-21.885	83153.7
-21.880	83161.7
-21.875	83153.7
-21.870	83161.7
-21.865	83145.7
-21.860	83155.7
-21.855	83144.7
-21.850	83145.7
-21.845	83141.7
-21.840	83137.7
-21.835	83147.7
-21.830	83118.7
-21.825	83107.7
-21.820	83136.7
-21.815	83146.7
-21.810	83143.7
-21.805	83137.7
-21.800	83140.7
-21.795	83132.7
-21.790	83133.7
-21.785	83126.7
-21.780	83136.7
-21.775	83137.7
-21.770	83148.7
-21.765	83134.7
-21.760	83110.7
-21.755	83118.7
-21.750	83141.7
-21.745	83151.7
-21.740	83154.7
-21.735	83149.7
-21.730	83147.7
-21.725	83133.7
-21.720	83138.7
-21.715	83133.7
-21.710	83136.7
-21.705	83130.7
-21.700	83116.7
-21.695	83103.7
-21.690	83110.7
-21.685	83139.7
-21.680	83144.7
-21.675	83134.7
-21.670	83129.7
-21.665	83125.7
-21.660	83121.7
-21.655	83128.7
-21.650	83118.7
-21.645	83126.7
-21.640	83134.7
-21.635	83142.7
-21.630	83120.7
-21.625	83096.7
-21.620	83117.7
-21.615	83141.7
-21.610	83141.7
-21.605	83138.7
-21.600	83132.7
-21.595	83130.7
-21.590	83133.7
-21.585	83124.7
-21.580	83124.7
-21.575	83126.7
-21.570	83127.7
-21.565	83105.7
-21.560	83092.7
-21.555	83101.7
-21.550	83126.7
-21.545	83118.7
-21.540	83122.7
-21.535	83118.7
-21.530	83116.7
-21.525	83110.7
-21.520	83114.7
-21.515	83116.7
-21.510	83120.7
-21.505	83117.7
-21.500	83128.7
-21.495	83102.7
-21.490	83091.7
-21.485	83113.7
-21.480	83136.7
-21.475	83132.7
-21.470	83132.7
-21.465	83130.7
-21.460	83123.7
-21.455	83121.7
-21.450	83115.7
-21.445	83117.7
-21.440	83122.7
-21.435	83112.7
-21.430	83092.7
-21.425	83085.7
-21.420	83106.7
-21.415	83119.7
-21.410	83122.7
-21.405	83108.7
-21.400	83110.7
-21.395	83100.7
-21.390	83094.7
-21.385	83090.7
-21.380	83083.7
-21.375	83088.7
-21.370	83097.7
-21.365	83067.7
-21.360	83023.8
-21.355	82993.8
-21.350	82972.9
-21.345	82893.9
-21.340	82795.1
-21.335	82644.2
-21.330	82459.4
-21.325	82191.7
-21.320	81857.1
-21.315	81431.6
-21.310	80962.1
-21.305	80520.6
-21.300	80057.2
-21.295	79589.8
-21.290	79096.5
-21.285	78560.2
-21.280	77931.0
-21.275	77318.8
-21.270	76718.6
-21.265	76019.5
-21.260	75161.5
-21.255	74190.5
-21.250	73517.4
-21.245	73314.9
-21.240	72974.3
-21.235	72715.5
-21.230	73351.9
-21.225	73726.6
-21.220	73593.5
-21.215	74203.9
-21.210	75231.1
-21.205	76213.3
-21.200	76834.8
-21.195	76679.9
-21.190	75526.6
-21.185	74562.1
-21.180	75117.6
-21.175	75920.0
-21.170	75616.1
-21.165	75793.9
-21.160	76485.3
-21.155	75220.1
-21.150	74689.5
-21.145	76562.1
-21.140	77726.2
-21.135	78109.9
-21.130	78104.8
-21.125	77830.0
-21.120	77006.5
-21.115	75723.4
-21.110	75912.2
-21.105	77039.4
-21.100	77357.2
-21.095	77586.0
-21.090	78286.4
-21.085	78613.1
-21.080	78029.5
-21.075	76481.6
-21.070	75397.3
-21.065	76391.5
-21.060	78038.4
-21.055	77354.9
-21.050	75154.5
-21.045	74623.8
-21.040	76686.2
-21.035	78399.0
-21.030	78576.8
-21.025	78076.1
-21.020	77792.3
-21.015	77973.2
-21.010	77942.2
-21.005	77678.3
-21.000	77928.1
-20.995	78564.7
-20.990	78953.4
-20.985	78954.3
-20.980	78768.4
-20.975	78646.5
-20.970	78558.5
-20.965	78502.6
-20.960	78447.6
-20.955	78436.6
-20.950	78778.3
-20.945	79239.0
-20.940	79492.8
-20.935	79489.8
-20.930	79283.9
-20.925	78847.2
-20.920	78390.5
-20.915	78302.6
-20.910	78502.4
-20.905	78779.2
-20.900	78988.0
-20.895	79012.0
-20.890	78989.0
-20.885	79093.9
-20.880	79225.8
-20.875	79331.7
-20.870	79314.7
-20.865	79228.8
-20.860	79162.8
-20.855	79101.8
-20.850	79095.8
-20.845	79182.7
-20.840	79280.7
-20.835	79375.6
-20.830	79407.5
-20.825	79370.6
-20.820	79362.6
-20.815	79289.6
-20.810	79199.6
-20.805	79132.7
-20.800	79067.7
-20.795	78920.8
-20.790	78818.9
-20.785	78851.9
-20.780	78941.8
-20.775	78998.7
-20.770	79082.7
-20.765	79123.6
-20.760	79192.6
-20.755	79240.5
-20.750	79240.5
-20.745	79193.5
-20.740	79186.5
-20.735	79232.5
-20.730	79303.4
-20.725	79386.3
-20.720	79417.3
-20.715	79425.3
-20.710	79508.2
-20.705	79571.2
-20.700	79637.1
-20.695	79698.1
-20.690	79717.1
-20.685	79800.0
-20.680	79863.9
-20.675	79883.9
-20.670	79900.9
-20.665	79919.9
-20.660	79942.8
-20.655	79964.8
-20.650	79991.8
-20.645	80015.8
-20.640	80035.7
-20.635	80014.8
-20.630	79976.8
-20.625	79938.8
-20.620	79932.8
-20.615	79924.8
-20.610	79922.8
-20.605	79890.8
-20.600	79871.8
-20.595	79885.8
-20.590	79927.8
-20.585	79958.7
-20.580	79967.7
-20.575	80012.7
-20.570	80031.7
-20.565	79993.7
-20.560	79974.7
-20.555	80007.7
-20.550	80044.6
-20.545	80025.6
-20.540	79985.7
-20.535	79954.7
-20.530	79963.7
-20.525	79974.7
-20.520	80008.6
-20.515	80075.6
-20.510	80152.5
-20.505	80204.5
-20.500	80261.4
-20.495	80263.4
-20.490	80284.4
-20.485	80355.3
-20.480	80400.3
-20.475	80418.3
-20.470	80433.3
-20.465	80442.2
-20.460	80448.2
-20.455	80463.2
-20.450	80468.2
-20.445	80482.2
-20.440	80485.2
-20.435	80499.2
-20.430	80490.2
-20.425	80456.2
-20.420	80467.2
-20.415	80493.2
-20.410	80510.1
-20.405	80504.1
-20.400	80506.1
-20.395	80489.2
-20.390	80458.2
-20.385	80441.2
-20.380	80447.2
-20.375	80447.2
-20.370	80472.1
-20.365	80434.2
-20.360	80404.2
-20.355	80389.2
-20.350	80386.2
-20.345	80381.2
-20.340	80405.2
-20.335	80391.2
-20.330	80371.2
-20.325	80349.2
-20.320	80334.2
-20.315	80330.2
-20.310	80313.2
-20.305	80292.2
-20.300	80263.2
-20.295	80233.3
-20.290	80235.3
-20.285	80280.2
-20.280	80298.2
-20.275	80336.2
-20.270	80365.1
-20.265	80386.1
-20.260	80408.1
-20.255	80451.1
-20.250	80495.0
-20.245	80519.0
-20.240	80559.0
-20.235	80569.0
-20.230	80582.9
-20.225	80598.9
-20.220	80656.9
-20.215	80676.9
-20.210	80697.8
-20.205	80713.8
-20.200	80740.8
-20.195	80722.8
-20.190	80732.8
-20.185	80727.8
-20.180	80720.8
-20.175	80704.8
-20.170	80693.8
-20.165	80678.8
-20.160	80662.8
-20.155	80669.8
-20.150	80666.8
-20.145	80645.8
-20.140	80660.8
-20.135	80675.8
-20.130	80681.8
-20.125	80674.8
-20.120	80661.8
-20.115	80669.8
-20.110	80703.8
-20.105	80718.8
-20.100	80708.8
-20.095	80705.8
-20.090	80716.8
-20.085	80751.7
