PK2650 Power Data
Z Position (mm)	105.000	W Position (deg)	216.00
Preform ID	Diameter (mm)	Time Stamp	Start Time	Operator	Serial Number
Test 1	25	03-Nov-22 18:05:01	03-Nov-22 18:07:09	[no user]	266007708
Radius (mm)	Power
-26.215	83053.7
-26.210	83085.6
-26.205	83092.6
-26.200	83093.6
-26.195	83108.6
-26.190	83100.6
-26.185	83099.6
-26.180	83099.6
-26.175	83086.6
-26.170	83093.6
-26.165	83083.6
-26.160	83093.6
-26.155	83070.6
-26.150	83068.6
-26.145	83083.6
-26.140	83106.6
-26.135	83109.6
-26.130	83103.6
-26.125	83096.6
-26.120	83100.6
-26.115	83097.6
-26.110	83103.6
-26.105	83100.6
-26.100	83109.6
-26.095	83116.6
-26.090	83111.6
-26.085	83092.6
-26.080	83097.6
-26.075	83114.6
-26.070	83128.6
-26.065	83129.6
-26.060	83132.6
-26.055	83127.6
-26.050	83130.6
-26.045	83125.6
-26.040	83134.6
-26.035	83121.6
-26.030	83128.6
-26.025	83118.6
-26.020	83096.6
-26.015	83096.6
-26.010	83135.6
-26.005	83130.6
-26.000	83128.6
-25.995	83118.6
-25.990	83112.6
-25.985	83117.6
-25.980	83122.6
-25.975	83123.6
-25.970	83128.6
-25.965	83134.6
-25.960	83146.6
-25.955	83122.6
-25.950	83103.6
-25.945	83125.6
-25.940	83140.6
-25.935	83148.6
-25.930	83143.6
-25.925	83147.6
-25.920	83144.6
-25.915	83146.6
-25.910	83137.6
-25.905	83129.6
-25.900	83143.6
-25.895	83146.6
-25.890	83123.6
-25.885	83115.6
-25.880	83124.6
-25.875	83149.6
-25.870	83153.6
-25.865	83150.6
-25.860	83139.6
-25.855	83150.6
-25.850	83134.6
-25.845	83144.6
-25.840	83144.6
-25.835	83145.6
-25.830	83153.6
-25.825	83149.6
-25.820	83122.6
-25.815	83106.6
-25.810	83148.6
-25.805	83149.6
-25.800	83150.6
-25.795	83150.6
-25.790	83153.6
-25.785	83149.6
-25.780	83159.6
-25.775	83152.6
-25.770	83150.6
-25.765	83150.6
-25.760	83147.6
-25.755	83122.6
-25.750	83116.6
-25.745	83143.6
-25.740	83167.6
-25.735	83162.6
-25.730	83159.6
-25.725	83145.6
-25.720	83148.6
-25.715	83140.6
-25.710	83138.6
-25.705	83138.6
-25.700	83160.6
-25.695	83162.6
-25.690	83149.6
-25.685	83132.6
-25.680	83140.6
-25.675	83155.6
-25.670	83157.6
-25.665	83157.6
-25.660	83160.6
-25.655	83160.6
-25.650	83162.6
-25.645	83161.6
-25.640	83157.6
-25.635	83148.6
-25.630	83149.6
-25.625	83125.6
-25.620	83124.6
-25.615	83121.6
-25.610	83159.6
-25.605	83154.6
-25.600	83165.6
-25.595	83155.6
-25.590	83152.6
-25.585	83140.6
-25.580	83141.6
-25.575	83139.6
-25.570	83143.6
-25.565	83157.6
-25.560	83162.6
-25.555	83133.6
-25.550	83127.6
-25.545	83146.6
-25.540	83160.6
-25.535	83154.6
-25.530	83154.6
-25.525	83144.6
-25.520	83152.6
-25.515	83147.6
-25.510	83153.6
-25.505	83145.6
-25.500	83153.6
-25.495	83146.6
-25.490	83125.6
-25.485	83112.6
-25.480	83124.6
-25.475	83146.6
-25.470	83154.6
-25.465	83153.6
-25.460	83155.6
-25.455	83142.6
-25.450	83143.6
-25.445	83134.6
-25.440	83138.6
-25.435	83131.6
-25.430	83151.6
-25.425	83140.6
-25.420	83128.6
-25.415	83121.6
-25.410	83157.6
-25.405	83155.6
-25.400	83151.6
-25.395	83150.6
-25.390	83150.6
-25.385	83149.6
-25.380	83143.6
-25.375	83152.6
-25.370	83153.6
-25.365	83147.6
-25.360	83153.6
-25.355	83121.6
-25.350	83110.6
-25.345	83137.6
-25.340	83147.6
-25.335	83148.6
-25.330	83144.6
-25.325	83136.6
-25.320	83140.6
-25.315	83133.6
-25.310	83132.6
-25.305	83133.6
-25.300	83142.6
-25.295	83152.6
-25.290	83132.6
-25.285	83117.6
-25.280	83127.6
-25.275	83155.6
-25.270	83152.6
-25.265	83149.6
-25.260	83145.6
-25.255	83140.6
-25.250	83139.6
-25.245	83133.6
-25.240	83142.6
-25.235	83138.6
-25.230	83149.6
-25.225	83125.6
-25.220	83110.6
-25.215	83113.6
-25.210	83141.6
-25.205	83140.6
-25.200	83141.6
-25.195	83141.6
-25.190	83137.6
-25.185	83136.6
-25.180	83128.6
-25.175	83123.6
-25.170	83132.6
-25.165	83142.6
-25.160	83149.6
-25.155	83122.6
-25.150	83112.6
-25.145	83130.6
-25.140	83147.6
-25.135	83142.6
-25.130	83140.6
-25.125	83140.6
-25.120	83135.6
-25.115	83136.6
-25.110	83134.6
-25.105	83147.6
-25.100	83138.6
-25.095	83149.6
-25.090	83117.6
-25.085	83096.6
-25.080	83113.6
-25.075	83137.6
-25.070	83132.6
-25.065	83133.6
-25.060	83135.6
-25.055	83134.6
-25.050	83128.6
-25.045	83125.6
-25.040	83125.6
-25.035	83130.6
-25.030	83132.6
-25.025	83124.6
-25.020	83107.6
-25.015	83112.6
-25.010	83141.6
-25.005	83141.6
-25.000	83145.6
-24.995	83138.6
-24.990	83139.6
-24.985	83129.6
-24.980	83132.6
-24.975	83121.6
-24.970	83130.6
-24.965	83136.6
-24.960	83126.6
-24.955	83098.6
-24.950	83093.6
-24.945	83119.6
-24.940	83139.6
-24.935	83128.6
-24.930	83130.6
-24.925	83124.6
-24.920	83125.6
-24.915	83121.6
-24.910	83116.6
-24.905	83131.6
-24.900	83132.6
-24.895	83127.6
-24.890	83108.6
-24.885	83096.6
-24.880	83114.6
-24.875	83127.6
-24.870	83133.6
-24.865	83125.6
-24.860	83126.6
-24.855	83125.6
-24.850	83109.6
-24.845	83103.6
-24.840	83114.6
-24.835	83108.6
-24.830	83113.6
-24.825	83092.6
-24.820	83079.6
-24.815	83090.6
-24.810	83122.6
-24.805	83114.6
-24.800	83110.6
-24.795	83108.6
-24.790	83106.6
-24.785	83102.6
-24.780	83106.6
-24.775	83113.6
-24.770	83114.6
-24.765	83119.6
-24.760	83108.6
-24.755	83087.6
-24.750	83079.6
-24.745	83103.6
-24.740	83127.6
-24.735	83111.6
-24.730	83122.6
-24.725	83106.6
-24.720	83108.6
-24.715	83099.6
-24.710	83103.6
-24.705	83101.6
-24.700	83095.6
-24.695	83098.6
-24.690	83078.6
-24.685	83069.7
-24.680	83086.6
-24.675	83106.6
-24.670	83099.6
-24.665	83094.6
-24.660	83088.6
-24.655	83089.6
-24.650	83092.6
-24.645	83091.6
-24.640	83093.6
-24.635	83093.6
-24.630	83102.6
-24.625	83079.6
-24.620	83064.7
-24.615	83061.7
-24.610	83091.6
-24.605	83098.6
-24.600	83107.6
-24.595	83095.6
-24.590	83099.6
-24.585	83079.6
-24.580	83082.6
-24.575	83075.6
-24.570	83082.6
-24.565	83080.6
-24.560	83070.6
-24.555	83050.7
-24.550	83045.7
-24.545	83088.6
-24.540	83087.6
-24.535	83083.6
-24.530	83078.6
-24.525	83070.7
-24.520	83068.7
-24.515	83065.7
-24.510	83079.6
-24.505	83080.6
-24.500	83086.6
-24.495	83085.6
-24.490	83060.7
-24.485	83035.7
-24.480	83064.7
-24.475	83088.6
-24.470	83088.6
-24.465	83091.6
-24.460	83090.6
-24.455	83078.6
-24.450	83076.6
-24.445	83079.6
-24.440	83072.6
-24.435	83058.7
-24.430	83074.7
-24.425	83045.7
-24.420	83040.7
-24.415	83046.7
-24.410	83076.6
-24.405	83069.7
-24.400	83062.7
-24.395	83067.7
-24.390	83064.7
-24.385	83060.7
-24.380	83060.7
-24.375	83062.7
-24.370	83071.7
-24.365	83064.7
-24.360	83064.7
-24.355	83038.7
-24.350	83039.7
-24.345	83062.7
-24.340	83073.7
-24.335	83065.7
-24.330	83074.7
-24.325	83069.7
-24.320	83068.7
-24.315	83064.7
-24.310	83063.7
-24.305	83053.7
-24.300	83049.7
-24.295	83051.7
-24.290	83030.7
-24.285	83019.7
-24.280	83050.7
-24.275	83057.7
-24.270	83060.7
-24.265	83056.7
-24.260	83056.7
-24.255	83046.7
-24.250	83048.7
-24.245	83048.7
-24.240	83061.7
-24.235	83060.7
-24.230	83075.6
-24.225	83061.7
-24.220	83041.7
-24.215	83034.7
-24.210	83069.7
-24.205	83061.7
-24.200	83062.7
-24.195	83067.7
-24.190	83070.7
-24.185	83074.6
-24.180	83056.7
-24.175	83063.7
-24.170	83060.7
-24.165	83055.7
-24.160	83041.7
-24.155	83020.7
-24.150	83029.7
-24.145	83066.7
-24.140	83066.7
-24.135	83070.7
-24.130	83062.7
-24.125	83053.7
-24.120	83053.7
-24.115	83045.7
-24.110	83049.7
-24.105	83057.7
-24.100	83068.7
-24.095	83072.7
-24.090	83053.7
-24.085	83030.7
-24.080	83054.7
-24.075	83060.7
-24.070	83068.7
-24.065	83055.7
-24.060	83073.6
-24.055	83065.7
-24.050	83069.7
-24.045	83052.7
-24.040	83054.7
-24.035	83060.7
-24.030	83066.7
-24.025	83047.7
-24.020	83030.7
-24.015	83042.7
-24.010	83072.7
-24.005	83066.7
-24.000	83074.6
-23.995	83061.7
-23.990	83048.7
-23.985	83053.7
-23.980	83047.7
-23.975	83056.7
-23.970	83053.7
-23.965	83065.7
-23.960	83059.7
-23.955	83044.7
-23.950	83035.7
-23.945	83069.7
-23.940	83069.7
-23.935	83063.7
-23.930	83069.7
-23.925	83068.6
-23.920	83074.6
-23.915	83069.7
-23.910	83072.7
-23.905	83065.7
-23.900	83067.7
-23.895	83049.7
-23.890	83034.7
-23.885	83031.7
-23.880	83055.7
-23.875	83065.7
-23.870	83068.7
-23.865	83070.6
-23.860	83067.7
-23.855	83066.7
-23.850	83071.7
-23.845	83052.7
-23.840	83059.7
-23.835	83063.7
-23.830	83074.7
-23.825	83054.7
-23.820	83044.7
-23.815	83058.7
-23.810	83084.6
-23.805	83081.6
-23.800	83078.6
-23.795	83075.6
-23.790	83080.6
-23.785	83073.7
-23.780	83085.6
-23.775	83088.6
-23.770	83091.6
-23.765	83086.6
-23.760	83070.6
-23.755	83050.7
-23.750	83053.7
-23.745	83084.6
-23.740	83089.6
-23.735	83091.6
-23.730	83093.6
-23.725	83091.6
-23.720	83090.6
-23.715	83086.6
-23.710	83083.6
-23.705	83069.7
-23.700	83091.6
-23.695	83094.6
-23.690	83079.6
-23.685	83067.7
-23.680	83089.6
-23.675	83107.6
-23.670	83099.6
-23.665	83091.6
-23.660	83089.6
-23.655	83090.6
-23.650	83091.6
-23.645	83090.6
-23.640	83099.6
-23.635	83091.6
-23.630	83101.6
-23.625	83063.7
-23.620	83054.7
-23.615	83059.7
-23.610	83101.6
-23.605	83093.6
-23.600	83100.6
-23.595	83095.6
-23.590	83094.6
-23.585	83094.6
-23.580	83091.6
-23.575	83089.6
-23.570	83088.6
-23.565	83096.6
-23.560	83096.6
-23.555	83075.6
-23.550	83080.6
-23.545	83104.6
-23.540	83114.6
-23.535	83106.6
-23.530	83105.6
-23.525	83093.6
-23.520	83097.6
-23.515	83092.6
-23.510	83099.6
-23.505	83101.6
-23.500	83107.6
-23.495	83103.6
-23.490	83085.6
-23.485	83062.7
-23.480	83106.6
-23.475	83101.6
-23.470	83101.6
-23.465	83100.6
-23.460	83095.6
-23.455	83102.6
-23.450	83108.6
-23.445	83108.6
-23.440	83114.6
-23.435	83113.6
-23.430	83123.6
-23.425	83091.6
-23.420	83079.6
-23.415	83095.6
-23.410	83122.6
-23.405	83123.6
-23.400	83124.6
-23.395	83120.6
-23.390	83117.6
-23.385	83118.6
-23.380	83117.6
-23.375	83110.6
-23.370	83124.6
-23.365	83123.6
-23.360	83116.6
-23.355	83081.6
-23.350	83101.6
-23.345	83122.6
-23.340	83130.6
-23.335	83114.6
-23.330	83122.6
-23.325	83119.6
-23.320	83130.6
-23.315	83122.6
-23.310	83116.6
-23.305	83127.6
-23.300	83135.6
-23.295	83136.6
-23.290	83109.6
-23.285	83105.6
-23.280	83134.6
-23.275	83145.6
-23.270	83154.6
-23.265	83142.6
-23.260	83152.6
-23.255	83146.6
-23.250	83136.6
-23.245	83137.6
-23.240	83138.6
-23.235	83134.6
-23.230	83150.6
-23.225	83120.6
-23.220	83114.6
-23.215	83125.6
-23.210	83161.6
-23.205	83147.6
-23.200	83143.6
-23.195	83146.6
-23.190	83148.6
-23.185	83144.6
-23.180	83146.6
-23.175	83140.6
-23.170	83150.6
-23.165	83149.6
-23.160	83155.6
-23.155	83115.6
-23.150	83127.6
-23.145	83160.6
-23.140	83157.6
-23.135	83158.6
-23.130	83168.6
-23.125	83155.6
-23.120	83166.6
-23.115	83150.6
-23.110	83157.6
-23.105	83152.6
-23.100	83158.6
-23.095	83159.6
-23.090	83128.6
-23.085	83128.6
-23.080	83161.6
-23.075	83164.6
-23.070	83155.6
-23.065	83150.6
-23.060	83158.6
-23.055	83150.6
-23.050	83150.6
-23.045	83150.6
-23.040	83158.6
-23.035	83161.6
-23.030	83171.6
-23.025	83149.6
-23.020	83132.6
-23.015	83156.6
-23.010	83176.6
-23.005	83170.6
-23.000	83183.6
-22.995	83178.6
-22.990	83177.6
-22.985	83174.6
-22.980	83169.6
-22.975	83159.6
-22.970	83164.6
-22.965	83166.6
-22.960	83144.6
-22.955	83133.6
-22.950	83146.6
-22.945	83168.6
-22.940	83172.6
-22.935	83165.6
-22.930	83168.6
-22.925	83155.6
-22.920	83161.6
-22.915	83159.6
-22.910	83159.6
-22.905	83160.6
-22.900	83185.6
-22.895	83166.6
-22.890	83143.6
-22.885	83136.6
-22.880	83164.6
-22.875	83173.6
-22.870	83182.6
-22.865	83180.6
-22.860	83180.6
-22.855	83177.6
-22.850	83179.6
-22.845	83160.6
-22.840	83170.6
-22.835	83161.6
-22.830	83166.6
-22.825	83136.6
-22.820	83134.6
-22.815	83151.6
-22.810	83181.6
-22.805	83174.6
-22.800	83172.6
-22.795	83168.6
-22.790	83167.6
-22.785	83156.6
-22.780	83155.6
-22.775	83163.6
-22.770	83172.6
-22.765	83174.6
-22.760	83172.6
-22.755	83150.6
-22.750	83150.6
-22.745	83173.6
-22.740	83182.6
-22.735	83179.6
-22.730	83182.6
-22.725	83186.6
-22.720	83181.6
-22.715	83172.6
-22.710	83172.6
-22.705	83167.6
-22.700	83167.6
-22.695	83160.6
-22.690	83141.6
-22.685	83134.6
-22.680	83177.6
-22.675	83167.6
-22.670	83176.6
-22.665	83164.6
-22.660	83172.6
-22.655	83159.6
-22.650	83166.6
-22.645	83163.6
-22.640	83174.6
-22.635	83168.6
-22.630	83187.6
-22.625	83156.6
-22.620	83146.6
-22.615	83159.6
-22.610	83181.6
-22.605	83177.6
-22.600	83181.6
-22.595	83178.6
-22.590	83176.6
-22.585	83171.6
-22.580	83171.6
-22.575	83174.6
-22.570	83174.6
-22.565	83174.6
-22.560	83147.6
-22.555	83135.6
-22.550	83149.6
-22.545	83179.6
-22.540	83190.6
-22.535	83179.6
-22.530	83176.6
-22.525	83163.6
-22.520	83164.6
-22.515	83163.6
-22.510	83169.6
-22.505	83174.6
-22.500	83183.6
-22.495	83179.6
-22.490	83156.6
-22.485	83141.6
-22.480	83174.6
-22.475	83180.6
-22.470	83186.6
-22.465	83175.6
-22.460	83180.6
-22.455	83176.6
-22.450	83181.6
-22.445	83173.6
-22.440	83177.6
-22.435	83168.6
-22.430	83181.6
-22.425	83151.6
-22.420	83144.6
-22.415	83162.6
-22.410	83189.5
-22.405	83177.6
-22.400	83177.6
-22.395	83182.6
-22.390	83172.6
-22.385	83167.6
-22.380	83177.6
-22.375	83178.6
-22.370	83188.6
-22.365	83178.6
-22.360	83176.6
-22.355	83153.6
-22.350	83154.6
-22.345	83185.6
-22.340	83191.5
-22.335	83186.6
-22.330	83180.6
-22.325	83181.6
-22.320	83191.6
-22.315	83182.6
-22.310	83178.6
-22.305	83183.6
-22.300	83176.6
-22.295	83161.6
-22.290	83149.6
-22.285	83141.6
-22.280	83192.5
-22.275	83186.6
-22.270	83179.6
-22.265	83160.6
-22.260	83169.6
-22.255	83165.6
-22.250	83169.6
-22.245	83167.6
-22.240	83178.6
-22.235	83181.6
-22.230	83185.6
-22.225	83160.6
-22.220	83149.6
-22.215	83167.6
-22.210	83185.6
-22.205	83184.6
-22.200	83180.6
-22.195	83183.6
-22.190	83183.6
-22.185	83180.6
-22.180	83183.6
-22.175	83179.6
-22.170	83178.6
-22.165	83167.6
-22.160	83151.6
-22.155	83132.6
-22.150	83150.6
-22.145	83177.6
-22.140	83177.6
-22.135	83173.6
-22.130	83160.6
-22.125	83161.6
-22.120	83163.6
-22.115	83164.6
-22.110	83168.6
-22.105	83170.6
-22.100	83183.6
-22.095	83168.6
-22.090	83156.6
-22.085	83135.6
-22.080	83187.6
-22.075	83168.6
-22.070	83178.6
-22.065	83174.6
-22.060	83176.6
-22.055	83176.6
-22.050	83167.6
-22.045	83170.6
-22.040	83165.6
-22.035	83166.6
-22.030	83160.6
-22.025	83132.6
-22.020	83122.6
-22.015	83162.6
-22.010	83174.6
-22.005	83162.6
-22.000	83164.6
-21.995	83157.6
-21.990	83158.6
-21.985	83157.6
-21.980	83155.6
-21.975	83152.6
-21.970	83159.6
-21.965	83165.6
-21.960	83152.6
-21.955	83138.6
-21.950	83142.6
-21.945	83164.6
-21.940	83168.6
-21.935	83170.6
-21.930	83158.6
-21.925	83167.6
-21.920	83168.6
-21.915	83160.6
-21.910	83162.6
-21.905	83168.6
-21.900	83154.6
-21.895	83134.6
-21.890	83129.6
-21.885	83130.6
-21.880	83165.6
-21.875	83163.6
-21.870	83161.6
-21.865	83152.6
-21.860	83152.6
-21.855	83143.6
-21.850	83149.6
-21.845	83143.6
-21.840	83151.6
-21.835	83157.6
-21.830	83165.6
-21.825	83135.6
-21.820	83129.6
-21.815	83151.6
-21.810	83165.6
-21.805	83160.6
-21.800	83158.6
-21.795	83151.6
-21.790	83156.6
-21.785	83148.6
-21.780	83158.6
-21.775	83147.6
-21.770	83158.6
-21.765	83146.6
-21.760	83123.6
-21.755	83110.6
-21.750	83122.6
-21.745	83153.6
-21.740	83151.6
-21.735	83147.6
-21.730	83145.6
-21.725	83144.6
-21.720	83147.6
-21.715	83131.6
-21.710	83133.6
-21.705	83138.6
-21.700	83148.6
-21.695	83134.6
-21.690	83119.6
-21.685	83120.6
-21.680	83155.6
-21.675	83160.6
-21.670	83156.6
-21.665	83142.6
-21.660	83139.6
-21.655	83140.6
-21.650	83140.6
-21.645	83139.6
-21.640	83151.6
-21.635	83142.6
-21.630	83130.6
-21.625	83116.6
-21.620	83100.6
-21.615	83126.6
-21.610	83138.6
-21.605	83122.6
-21.600	83141.6
-21.595	83126.6
-21.590	83138.6
-21.585	83120.6
-21.580	83133.6
-21.575	83128.6
-21.570	83129.6
-21.565	83135.6
-21.560	83120.6
-21.555	83101.6
-21.550	83125.6
-21.545	83139.6
-21.540	83146.6
-21.535	83135.6
-21.530	83125.6
-21.525	83121.6
-21.520	83139.6
-21.515	83123.6
-21.510	83132.6
-21.505	83137.6
-21.500	83136.6
-21.495	83114.6
-21.490	83099.6
-21.485	83096.6
-21.480	83134.6
-21.475	83124.6
-21.470	83127.6
-21.465	83125.6
-21.460	83128.6
-21.455	83122.6
-21.450	83128.6
-21.445	83122.6
-21.440	83121.6
-21.435	83131.6
-21.430	83128.6
-21.425	83097.6
-21.420	83087.6
-21.415	83128.6
-21.410	83143.6
-21.405	83143.6
-21.400	83130.6
-21.395	83121.6
-21.390	83120.6
-21.385	83114.6
-21.380	83116.6
-21.375	83125.6
-21.370	83130.6
-21.365	83124.6
-21.360	83100.6
-21.355	83072.6
-21.350	83103.6
-21.345	83106.6
-21.340	83105.6
-21.335	83107.6
-21.330	83104.6
-21.325	83093.6
-21.320	83088.6
-21.315	83066.7
-21.310	83043.7
-21.305	82999.7
-21.300	82946.8
-21.295	82844.9
-21.290	82712.1
-21.285	82540.2
-21.280	82360.5
-21.275	82067.8
-21.270	81696.2
-21.265	81233.7
-21.260	80772.3
-21.255	80312.8
-21.250	79846.4
-21.245	79392.0
-21.240	78850.7
-21.235	78251.5
-21.230	77624.3
-21.225	77005.2
-21.220	76383.0
-21.215	75655.9
-21.210	74750.9
-21.205	73840.9
-21.200	73420.5
-21.195	73232.0
-21.190	72793.4
-21.185	72935.2
-21.180	73687.6
-21.175	73657.4
-21.170	73775.2
-21.165	74661.5
-21.160	75673.7
-21.155	76525.0
-21.150	76874.6
-21.145	76314.0
-21.140	75007.8
-21.135	74706.9
-21.130	75600.2
-21.125	75923.8
-21.120	75537.0
-21.115	76264.5
-21.110	76232.4
-21.105	74709.4
-21.100	75399.9
-21.095	77208.5
-21.090	77917.0
-21.085	78148.7
-21.080	78039.8
-21.075	77599.0
-21.070	76410.9
-21.065	75430.5
-21.060	76359.8
-21.055	77270.2
-21.050	77397.1
-21.045	77832.7
-21.040	78511.1
-21.035	78506.1
-21.030	77515.7
-21.025	75847.9
-21.020	75406.2
-21.015	77072.0
-21.010	78153.2
-21.005	76665.3
-21.000	74695.7
-20.995	75182.3
-20.990	77472.5
-20.985	78604.7
-20.980	78484.8
-20.975	77935.2
-20.970	77826.2
-20.965	78020.1
-20.960	77822.2
-20.955	77641.3
-20.950	78119.9
-20.945	78735.4
-20.940	79003.2
-20.935	78900.3
-20.930	78725.4
-20.925	78599.4
-20.920	78521.5
-20.915	78489.5
-20.910	78427.5
-20.905	78488.5
-20.900	78907.1
-20.895	79322.8
-20.890	79468.7
-20.885	79391.7
-20.880	79157.9
-20.875	78665.3
-20.870	78316.5
-20.865	78351.5
-20.860	78587.3
-20.855	78866.0
-20.850	79042.9
-20.845	79020.9
-20.840	79022.9
-20.835	79136.8
-20.830	79259.7
-20.825	79294.6
-20.820	79255.7
-20.815	79201.7
-20.810	79160.7
-20.805	79093.7
-20.800	79124.7
-20.795	79200.6
-20.790	79288.6
-20.785	79385.5
-20.780	79419.4
-20.775	79390.5
-20.770	79343.5
-20.765	79260.5
-20.760	79149.6
-20.755	79080.6
-20.750	78995.7
-20.745	78871.8
-20.740	78822.8
-20.735	78899.7
-20.730	78964.7
-20.725	79028.6
-20.720	79115.6
-20.715	79182.5
-20.710	79248.4
-20.705	79261.4
-20.700	79230.4
-20.695	79162.5
-20.690	79172.4
-20.685	79238.4
-20.680	79353.3
-20.675	79415.2
-20.670	79435.2
-20.665	79460.2
-20.660	79538.1
-20.655	79585.1
-20.650	79663.0
-20.645	79721.0
-20.640	79759.9
-20.635	79823.9
-20.630	79852.9
-20.625	79848.8
-20.620	79869.8
-20.615	79913.8
-20.610	79949.7
-20.605	79977.7
-20.600	80004.7
-20.595	80028.7
-20.590	80038.7
-20.585	80016.7
-20.580	80000.7
-20.575	79977.7
-20.570	79943.7
-20.565	79917.7
-20.560	79878.7
-20.555	79858.7
-20.550	79873.7
-20.545	79916.7
-20.540	79957.6
-20.535	79968.6
-20.530	79981.6
-20.525	80007.6
-20.520	79988.6
-20.515	79957.6
-20.510	79964.6
-20.505	79988.6
-20.500	80017.6
-20.495	79980.6
-20.490	79950.6
-20.485	79932.6
-20.480	79969.6
-20.475	79976.6
-20.470	80015.5
-20.465	80089.5
-20.460	80162.4
-20.455	80210.4
-20.450	80286.3
-20.445	80294.3
-20.440	80322.3
-20.435	80368.2
-20.430	80388.2
-20.425	80377.2
-20.420	80400.2
-20.415	80450.1
-20.410	80456.1
-20.405	80470.1
-20.400	80485.1
-20.395	80477.1
-20.390	80473.1
-20.385	80479.1
-20.380	80483.1
-20.375	80466.1
-20.370	80479.1
-20.365	80490.1
-20.360	80487.1
-20.355	80459.1
-20.350	80480.1
-20.345	80476.1
-20.340	80455.1
-20.335	80445.1
-20.330	80440.1
-20.325	80447.1
-20.320	80462.1
-20.315	80447.1
-20.310	80435.1
-20.305	80401.1
-20.300	80379.1
-20.295	80350.1
-20.290	80364.1
-20.285	80353.1
-20.280	80359.1
-20.275	80346.1
-20.270	80340.1
-20.265	80313.1
-20.260	80297.1
-20.255	80258.2
-20.250	80243.2
-20.245	80240.2
-20.240	80255.2
-20.235	80257.1
-20.230	80287.1
-20.225	80306.1
-20.220	80336.1
-20.215	80385.0
-20.210	80429.0
-20.205	80458.0
-20.200	80499.9
-20.195	80529.9
-20.190	80556.9
-20.185	80582.9
-20.180	80626.8
-20.175	80642.8
-20.170	80667.8
-20.165	80678.8
-20.160	80674.8
-20.155	80667.8
-20.150	80713.7
-20.145	80724.7
-20.140	80726.7
-20.135	80731.7
-20.130	80722.7
-20.125	80686.7
-20.120	80671.8
-20.115	80670.8
-20.110	80674.8
-20.105	80656.8
-20.100	80638.8
-20.095	80619.8
-20.090	80619.8
-20.085	80644.8
-20.080	80681.7
-20.075	80674.7
-20.070	80660.7
-20.065	80676.7
-20.060	80688.7
-20.055	80698.7
-20.050	80709.7
-20.045	80726.7
-20.040	80738.7
